* Measurement data measured by REW V5.31.3
* Source: Headset (DS by VECLAN.COM), MICROPHONE (Master Volume), L, volume: 0.720. Timing signal peak level -31.9 dBFS, measurement signal peak level -16.4 dBFS
* Format: 2M Log Swept Sine, 1 sweep at -30.6 dBFS using an acoustic timing reference
* Dated: Mar 6, 2025 8:53:51 PM
* REW Settings:
*  C-weighting compensation: Off
*  Target level: 85.0 dB
* Note: ; Fosi DS1 & Abigail Pro Delay -0.0637 ms (-22 mm, -0.86 in) using estimated IR delay relative to Acoustic reference played from SPEAKER R with no timing offset Clock adjustment: -26.1 ppm
* Measurement: Balanced 25 Ohm R
* Smoothing: 1/24 octave
* Frequency Step: 1/48 octave
* Start Frequency: 1.000 Hz
*
* Freq(Hz), SPL(dB), Phase(degrees)
1.000000, 73.251, 150.3323
1.015000, 73.631, 149.5184
1.030000, 74.004, 148.7002
1.044000, 74.345, 147.9308
1.060000, 74.726, 147.0428
1.075000, 75.075, 146.2006
1.090000, 75.414, 145.3509
1.106000, 75.766, 144.4531
1.120000, 76.068, 143.7035
1.138000, 76.450, 142.8054
1.150000, 76.700, 142.2458
1.172000, 77.149, 141.2877
1.180000, 77.310, 140.9555
1.206000, 77.821, 139.9413
1.220000, 78.089, 139.4311
1.241000, 78.482, 138.7041
1.250000, 78.648, 138.4048
1.265000, 78.918, 137.9195
1.280000, 79.183, 137.4489
1.315000, 79.779, 136.3933
1.320000, 79.861, 136.2462
1.340000, 80.184, 135.6638
1.360000, 80.497, 135.0893
1.380000, 80.798, 134.4809
1.400000, 81.089, 133.8583
1.430000, 81.504, 132.9193
1.450000, 81.767, 132.2879
1.475000, 82.076, 131.5067
1.500000, 82.360, 130.7731
1.525000, 82.617, 130.1001
1.550000, 82.851, 129.4801
1.575000, 83.063, 128.8868
1.600000, 83.257, 128.2979
1.625000, 83.436, 127.7363
1.650000, 83.604, 127.1948
1.675000, 83.762, 126.6671
1.700000, 83.914, 126.1477
1.725000, 84.062, 125.6316
1.750000, 84.211, 125.1146
1.775000, 84.362, 124.5789
1.800000, 84.518, 124.0084
1.825000, 84.682, 123.4315
1.850000, 84.851, 122.8598
1.875000, 85.019, 122.3110
1.900000, 85.185, 121.7889
1.925000, 85.349, 121.2910
1.950000, 85.510, 120.8142
1.975000, 85.669, 120.3439
2.000000, 85.826, 119.8665
2.030000, 86.011, 119.3086
2.060000, 86.194, 118.7612
2.090000, 86.373, 118.2194
2.120000, 86.551, 117.6789
2.140000, 86.668, 117.3171
2.180000, 86.899, 116.5673
2.200000, 87.013, 116.1719
2.240000, 87.238, 115.3952
2.270000, 87.403, 114.8339
2.300000, 87.565, 114.2908
2.330000, 87.725, 113.7640
2.360000, 87.882, 113.2507
2.400000, 88.089, 112.5456
2.430000, 88.240, 112.0211
2.470000, 88.440, 111.3299
2.500000, 88.587, 110.8145
2.540000, 88.780, 110.1272
2.580000, 88.971, 109.4256
2.620000, 89.157, 108.7047
2.650000, 89.295, 108.1759
2.690000, 89.475, 107.4865
2.720000, 89.607, 106.9806
2.760000, 89.781, 106.3209
2.800000, 89.952, 105.6379
2.850000, 90.160, 104.7930
2.900000, 90.364, 103.9588
2.950000, 90.563, 103.1313
3.000000, 90.756, 102.2866
3.040000, 90.907, 101.6117
3.070000, 91.018, 101.1130
3.110000, 91.164, 100.4590
3.150000, 91.306, 99.8173
3.200000, 91.480, 99.0021
3.250000, 91.650, 98.1895
3.300000, 91.816, 97.3899
3.350000, 91.977, 96.6000
3.400000, 92.134, 95.7939
3.450000, 92.286, 94.9904
3.500000, 92.434, 94.2031
3.550000, 92.579, 93.4350
3.600000, 92.719, 92.6599
3.650000, 92.857, 91.8915
3.700000, 92.991, 91.1357
3.750000, 93.121, 90.3872
3.820000, 93.298, 89.3279
3.870000, 93.420, 88.5819
3.950000, 93.609, 87.4258
4.000000, 93.723, 86.7047
4.060000, 93.856, 85.8476
4.120000, 93.984, 85.0037
4.180000, 94.109, 84.1668
4.250000, 94.248, 83.1854
4.310000, 94.364, 82.3711
4.370000, 94.477, 81.5802
4.440000, 94.603, 80.6562
4.500000, 94.708, 79.8782
4.550000, 94.793, 79.2408
4.620000, 94.908, 78.3462
4.680000, 95.003, 77.5979
4.750000, 95.111, 76.7564
4.820000, 95.215, 75.9203
4.870000, 95.288, 75.3304
4.940000, 95.386, 74.5227
5.000000, 95.467, 73.8352
5.080000, 95.573, 72.9381
5.150000, 95.663, 72.1837
5.220000, 95.750, 71.4312
5.300000, 95.846, 70.5870
5.380000, 95.940, 69.7672
5.450000, 96.019, 69.0544
5.520000, 96.095, 68.3673
5.600000, 96.180, 67.5952
5.700000, 96.282, 66.6445
5.800000, 96.380, 65.7253
5.900000, 96.476, 64.8276
6.000000, 96.570, 63.9571
6.080000, 96.643, 63.2703
6.150000, 96.705, 62.6890
6.220000, 96.766, 62.1068
6.300000, 96.835, 61.4558
6.400000, 96.918, 60.6584
6.500000, 96.998, 59.8710
6.600000, 97.078, 59.1026
6.700000, 97.156, 58.3377
6.800000, 97.232, 57.5883
6.900000, 97.306, 56.8453
7.000000, 97.378, 56.1194
7.100000, 97.446, 55.3986
7.200000, 97.511, 54.6913
7.300000, 97.576, 53.9913
7.400000, 97.638, 53.3063
7.500000, 97.700, 52.6274
7.620000, 97.771, 51.8280
7.750000, 97.845, 50.9810
7.880000, 97.915, 50.1414
8.000000, 97.976, 49.3861
8.120000, 98.036, 48.6423
8.250000, 98.097, 47.8507
8.380000, 98.157, 47.0796
8.500000, 98.209, 46.3814
8.620000, 98.258, 45.6999
8.750000, 98.310, 44.9794
8.850000, 98.348, 44.4360
9.000000, 98.405, 43.6442
9.120000, 98.449, 43.0230
9.250000, 98.496, 42.3631
9.380000, 98.542, 41.7197
9.500000, 98.583, 41.1291
9.620000, 98.624, 40.5505
9.750000, 98.666, 39.9319
9.880000, 98.700, 39.3239
10.000000, 98.721, 38.7781
10.150000, 98.737, 38.0794
10.300000, 98.744, 37.4052
10.440000, 98.746, 36.7974
10.600000, 98.743, 36.1273
10.750000, 98.742, 35.5224
10.900000, 98.740, 34.9391
11.060000, 98.741, 34.3089
11.200000, 98.742, 33.7305
11.380000, 98.744, 33.0124
11.500000, 98.743, 32.5490
11.720000, 98.741, 31.7304
11.800000, 98.741, 31.4424
12.060000, 98.744, 30.5192
12.200000, 98.749, 30.0057
12.410000, 98.758, 29.2617
12.500000, 98.761, 28.9522
12.650000, 98.766, 28.4485
12.800000, 98.770, 27.9597
13.150000, 98.779, 26.8250
13.200000, 98.780, 26.6594
13.400000, 98.788, 26.0116
13.600000, 98.796, 25.3851
13.800000, 98.804, 24.7788
14.000000, 98.812, 24.1873
14.300000, 98.823, 23.2657
14.500000, 98.829, 22.6724
14.750000, 98.833, 21.9591
15.000000, 98.838, 21.2760
15.250000, 98.847, 20.5747
15.500000, 98.858, 19.9031
15.750000, 98.867, 19.2609
16.000000, 98.877, 18.6426
16.250000, 98.886, 17.9991
16.500000, 98.895, 17.3722
16.750000, 98.904, 16.7618
17.000000, 98.913, 16.1652
17.250000, 98.921, 15.5541
17.500000, 98.929, 14.9623
17.750000, 98.934, 14.3959
18.000000, 98.940, 13.8516
18.250000, 98.945, 13.2996
18.500000, 98.951, 12.7644
18.750000, 98.958, 12.2455
19.000000, 98.967, 11.7379
19.250000, 98.976, 11.2098
19.500000, 98.986, 10.6890
19.750000, 98.995, 10.1764
20.000000, 99.002, 9.6735
20.299999, 99.010, 9.0518
20.600000, 99.015, 8.4494
20.900000, 99.019, 7.8674
21.200001, 99.022, 7.2858
21.400000, 99.022, 6.9020
21.799999, 99.021, 6.1595
22.000000, 99.020, 5.7990
22.400000, 99.017, 5.0726
22.700001, 99.014, 4.5474
23.000000, 99.011, 4.0367
23.299999, 99.007, 3.5244
23.600000, 99.004, 3.0222
24.000000, 99.001, 2.3659
24.299999, 98.998, 1.8645
24.700001, 98.995, 1.2057
25.000000, 98.991, 0.7212
25.400000, 98.984, 0.0717
25.799999, 98.975, -0.5548
26.200001, 98.965, -1.1680
26.500000, 98.957, -1.6201
26.900000, 98.947, -2.2006
27.200001, 98.941, -2.6306
27.600000, 98.933, -3.1987
28.000000, 98.924, -3.7592
28.500000, 98.913, -4.4713
29.000000, 98.899, -5.1572
29.500000, 98.884, -5.8172
30.000000, 98.869, -6.4611
30.400000, 98.856, -6.9906
30.700001, 98.845, -7.3840
31.100000, 98.828, -7.9003
31.500000, 98.811, -8.4076
32.000000, 98.789, -9.0184
32.500000, 98.767, -9.6223
33.000000, 98.744, -10.2206
33.500000, 98.720, -10.8323
34.000000, 98.695, -11.4217
34.500000, 98.672, -11.9816
35.000000, 98.652, -12.5272
35.500000, 98.632, -13.0845
36.000000, 98.611, -13.6412
36.500000, 98.588, -14.1884
37.000000, 98.565, -14.7146
37.500000, 98.543, -15.2455
38.200001, 98.511, -16.0037
38.700001, 98.482, -16.5429
39.500000, 98.431, -17.3318
40.000000, 98.404, -17.7827
40.599998, 98.374, -18.3508
41.200001, 98.343, -18.9334
41.799999, 98.308, -19.4971
42.500000, 98.269, -20.1129
43.099998, 98.241, -20.6365
43.700001, 98.214, -21.1674
44.400002, 98.180, -21.7999
45.000000, 98.148, -22.3292
45.500000, 98.121, -22.7460
46.200001, 98.082, -23.3164
46.799999, 98.051, -23.8035
47.500000, 98.015, -24.3584
48.200001, 97.979, -24.9268
48.700001, 97.952, -25.3363
49.400002, 97.910, -25.8914
50.000000, 97.875, -26.3439
50.799999, 97.831, -26.9403
51.500000, 97.793, -27.4779
52.200001, 97.753, -28.0020
53.000000, 97.708, -28.5508
53.799999, 97.663, -29.0992
54.500000, 97.624, -29.5608
55.200001, 97.585, -30.0238
56.000000, 97.536, -30.5541
57.000000, 97.470, -31.1564
58.000000, 97.402, -31.8130
59.000000, 97.320, -32.3895
60.000000, 97.259, -32.8380
60.799999, 97.227, -33.3727
61.500000, 97.188, -33.9084
62.200001, 97.139, -34.4025
63.000000, 97.087, -34.9160
64.000000, 97.026, -35.4840
65.000000, 96.970, -36.0837
66.000000, 96.917, -36.6801
67.000000, 96.860, -37.2112
68.000000, 96.803, -37.7416
69.000000, 96.746, -38.2634
70.000000, 96.688, -38.7745
71.000000, 96.626, -39.3162
72.000000, 96.561, -39.8339
73.000000, 96.499, -40.2981
74.000000, 96.440, -40.7850
75.000000, 96.380, -41.2844
76.199997, 96.307, -41.8475
77.500000, 96.233, -42.4270
78.800003, 96.157, -42.9949
80.000000, 96.088, -43.5241
81.199997, 96.019, -44.0511
82.500000, 95.941, -44.6158
83.800003, 95.862, -45.1301
85.000000, 95.789, -45.5959
86.199997, 95.717, -46.0743
87.500000, 95.641, -46.5551
88.500000, 95.583, -46.9464
90.000000, 95.495, -47.5330
91.199997, 95.431, -47.9792
92.500000, 95.366, -48.4315
93.800003, 95.298, -48.8895
95.000000, 95.233, -49.3484
96.199997, 95.164, -49.7735
97.500000, 95.092, -50.1825
98.800003, 95.025, -50.6051
100.000000, 94.961, -51.0201
101.500000, 94.879, -51.5328
103.000000, 94.793, -52.0132
104.400002, 94.716, -52.4647
106.000000, 94.630, -53.0060
107.500000, 94.554, -53.4799
109.000000, 94.481, -53.8526
110.599998, 94.404, -54.2755
112.000000, 94.318, -54.6530
113.800003, 94.203, -55.1051
115.000000, 94.137, -55.5047
117.199997, 94.047, -56.2787
118.000000, 94.034, -56.5067
120.599998, 93.950, -57.5653
122.000000, 93.843, -57.7086
124.099998, 93.709, -57.7858
125.000000, 93.661, -57.9146
126.500000, 93.589, -58.2036
128.000000, 93.520, -58.6406
131.500000, 93.341, -59.4942
132.000000, 93.318, -59.6093
134.000000, 93.236, -60.2532
136.000000, 93.155, -61.0968
138.000000, 93.046, -61.6562
140.000000, 92.938, -61.7050
143.000000, 92.787, -61.9716
145.000000, 92.697, -62.5645
147.500000, 92.611, -63.2302
150.000000, 92.553, -63.5279
152.500000, 92.460, -63.8655
155.000000, 92.312, -64.3715
157.500000, 92.195, -64.6931
160.000000, 92.155, -65.1559
162.500000, 92.111, -66.0142
165.000000, 91.998, -66.5940
167.500000, 91.890, -66.7115
170.000000, 91.758, -66.7259
172.500000, 91.625, -66.8257
175.000000, 91.512, -67.2059
177.500000, 91.434, -67.6726
180.000000, 91.359, -68.2742
182.500000, 91.268, -68.8220
185.000000, 91.173, -69.2366
187.500000, 91.097, -69.3413
190.000000, 91.031, -69.4452
192.500000, 90.937, -69.8500
195.000000, 90.804, -70.1790
197.500000, 90.685, -70.2972
200.000000, 90.594, -70.4906
203.000000, 90.500, -70.8884
206.000000, 90.417, -71.4422
209.000000, 90.329, -71.8960
212.000000, 90.246, -72.2363
214.000000, 90.186, -72.4368
218.000000, 90.058, -72.8881
220.000000, 89.996, -73.1603
224.000000, 89.866, -73.6171
227.000000, 89.761, -73.9222
230.000000, 89.671, -74.3198
233.000000, 89.586, -74.7007
236.000000, 89.494, -74.9192
240.000000, 89.368, -75.1277
243.000000, 89.291, -75.3965
247.000000, 89.181, -75.7947
250.000000, 89.091, -76.0110
254.000000, 88.970, -76.3292
258.000000, 88.845, -76.7441
262.000000, 88.726, -77.1136
265.000000, 88.648, -77.3190
269.000000, 88.548, -77.6345
272.000000, 88.477, -77.8483
276.000000, 88.381, -78.1124
280.000000, 88.284, -78.3996
285.000000, 88.173, -78.7632
290.000000, 88.065, -79.1219
295.000000, 87.952, -79.5051
300.000000, 87.835, -79.9128
304.000000, 87.744, -80.1793
307.000000, 87.677, -80.3592
311.000000, 87.590, -80.6082
315.000000, 87.502, -80.8418
320.000000, 87.396, -81.1183
325.000000, 87.291, -81.4005
330.000000, 87.190, -81.7069
335.000000, 87.090, -81.9664
340.000000, 86.988, -82.2157
345.000000, 86.889, -82.4738
350.000000, 86.791, -82.7253
355.000000, 86.695, -82.9830
360.000000, 86.601, -83.2278
365.000000, 86.506, -83.4268
370.000000, 86.414, -83.6372
375.000000, 86.322, -83.8717
382.000000, 86.192, -84.1516
387.000000, 86.101, -84.3476
395.000000, 85.960, -84.6324
400.000000, 85.875, -84.8008
406.000000, 85.775, -85.0022
412.000000, 85.673, -85.2114
418.000000, 85.573, -85.3776
425.000000, 85.457, -85.6195
431.000000, 85.361, -85.7860
437.000000, 85.267, -85.9477
444.000000, 85.160, -86.1202
450.000000, 85.071, -86.2700
455.000000, 84.998, -86.3806
462.000000, 84.897, -86.5353
468.000000, 84.813, -86.6671
475.000000, 84.715, -86.7896
482.000000, 84.621, -86.9072
487.000000, 84.558, -87.0053
494.000000, 84.472, -87.1008
500.000000, 84.401, -87.1619
508.000000, 84.310, -87.2258
515.000000, 84.232, -87.3062
522.000000, 84.154, -87.4030
530.000000, 84.068, -87.4804
538.000000, 83.982, -87.5576
545.000000, 83.906, -87.6379
552.000000, 83.833, -87.6767
560.000000, 83.752, -87.6714
570.000000, 83.652, -87.6686
580.000000, 83.559, -87.6677
590.000000, 83.469, -87.6050
600.000000, 83.382, -87.5620
608.000000, 83.315, -87.4748
615.000000, 83.256, -87.3824
622.000000, 83.199, -87.2764
630.000000, 83.137, -87.1751
640.000000, 83.064, -87.0084
650.000000, 82.997, -86.8065
660.000000, 82.939, -86.6136
670.000000, 82.882, -86.3776
680.000000, 82.831, -86.1291
690.000000, 82.788, -85.8693
700.000000, 82.751, -85.6132
710.000000, 82.722, -85.3581
720.000000, 82.698, -85.1092
730.000000, 82.680, -84.8383
740.000000, 82.669, -84.5825
750.000000, 82.663, -84.3420
762.000000, 82.661, -84.0538
775.000000, 82.663, -83.7738
788.000000, 82.671, -83.5396
800.000000, 82.684, -83.3251
812.000000, 82.700, -83.1116
825.000000, 82.720, -82.8998
838.000000, 82.747, -82.6788
850.000000, 82.769, -82.5674
862.000000, 82.792, -82.4624
875.000000, 82.822, -82.3231
885.000000, 82.847, -82.2233
900.000000, 82.887, -82.0740
912.000000, 82.923, -81.9691
925.000000, 82.965, -81.8895
938.000000, 83.008, -81.8126
950.000000, 83.050, -81.7397
962.000000, 83.092, -81.6927
975.000000, 83.138, -81.6655
988.000000, 83.185, -81.6429
1000.000000, 83.230, -81.6319
1015.000000, 83.288, -81.6483
1030.000000, 83.346, -81.6757
1044.000000, 83.400, -81.7125
1060.000000, 83.463, -81.7813
1075.000000, 83.523, -81.8611
1090.000000, 83.589, -81.9655
1106.000000, 83.668, -82.1016
1120.000000, 83.740, -82.2257
1138.000000, 83.832, -82.4097
1150.000000, 83.892, -82.5416
1172.000000, 84.000, -82.7751
1180.000000, 84.039, -82.8717
1206.000000, 84.165, -83.1938
1220.000000, 84.235, -83.3641
1241.000000, 84.341, -83.6424
1250.000000, 84.386, -83.7621
1265.000000, 84.461, -83.9456
1280.000000, 84.536, -84.1415
1315.000000, 84.708, -84.6051
1320.000000, 84.732, -84.6701
1340.000000, 84.820, -84.9241
1360.000000, 84.888, -85.1730
1380.000000, 84.955, -85.4283
1400.000000, 85.037, -85.6844
1430.000000, 85.163, -86.0723
1450.000000, 85.247, -86.3240
1475.000000, 85.354, -86.6492
1500.000000, 85.461, -86.9680
1525.000000, 85.564, -87.2859
1550.000000, 85.663, -87.6127
1575.000000, 85.760, -87.9537
1600.000000, 85.857, -88.2930
1625.000000, 85.953, -88.6632
1650.000000, 86.050, -89.0496
1675.000000, 86.145, -89.4456
1700.000000, 86.239, -89.8566
1725.000000, 86.331, -90.2880
1750.000000, 86.420, -90.7372
1775.000000, 86.506, -91.2147
1800.000000, 86.588, -91.7057
1825.000000, 86.667, -92.2117
1850.000000, 86.742, -92.7385
1875.000000, 86.813, -93.2725
1900.000000, 86.879, -93.8264
1925.000000, 86.940, -94.3943
1950.000000, 86.997, -94.9829
1975.000000, 87.049, -95.5782
2000.000000, 87.095, -96.1803
2030.000000, 87.141, -96.9067
2060.000000, 87.179, -97.6572
2090.000000, 87.208, -98.4130
2120.000000, 87.228, -99.1504
2140.000000, 87.236, -99.6314
2180.000000, 87.240, -100.5693
2200.000000, 87.234, -101.0359
2240.000000, 87.210, -101.9359
2270.000000, 87.182, -102.5649
2300.000000, 87.147, -103.1548
2330.000000, 87.106, -103.6981
2360.000000, 87.057, -104.2048
2400.000000, 86.981, -104.8261
2430.000000, 86.918, -105.2324
2470.000000, 86.826, -105.7042
2500.000000, 86.754, -106.0015
2540.000000, 86.651, -106.3119
2580.000000, 86.544, -106.5361
2620.000000, 86.436, -106.6837
2650.000000, 86.354, -106.7346
2690.000000, 86.242, -106.7252
2720.000000, 86.157, -106.6643
2760.000000, 86.043, -106.5054
2800.000000, 85.932, -106.2748
2850.000000, 85.795, -105.8898
2900.000000, 85.660, -105.3802
2950.000000, 85.536, -104.7089
3000.000000, 85.435, -103.8982
3040.000000, 85.379, -103.1910
3070.000000, 85.354, -102.6832
3110.000000, 85.335, -102.1088
3150.000000, 85.322, -101.6752
3200.000000, 85.298, -101.2980
3250.000000, 85.255, -101.0116
3300.000000, 85.195, -100.7306
3350.000000, 85.121, -100.4333
3400.000000, 85.041, -100.0833
3450.000000, 84.960, -99.6920
3500.000000, 84.879, -99.2935
3550.000000, 84.794, -98.8796
3600.000000, 84.704, -98.4248
3650.000000, 84.614, -97.9379
3700.000000, 84.523, -97.4438
3750.000000, 84.429, -96.9895
3820.000000, 84.281, -96.4404
3870.000000, 84.153, -96.0691
3950.000000, 83.906, -95.4249
4000.000000, 83.725, -94.9553
4060.000000, 83.481, -94.2660
4120.000000, 83.210, -93.4023
4180.000000, 82.913, -92.3125
4250.000000, 82.545, -90.6483
4310.000000, 82.221, -88.8305
4370.000000, 81.902, -86.6891
4440.000000, 81.548, -83.8274
4500.000000, 81.273, -81.0807
4550.000000, 81.068, -78.5974
4620.000000, 80.824, -74.8423
4680.000000, 80.664, -71.3803
4750.000000, 80.547, -67.1152
4820.000000, 80.521, -62.7165
4870.000000, 80.566, -59.5918
4940.000000, 80.722, -55.3953
5000.000000, 80.933, -52.1359
5080.000000, 81.303, -48.4683
5150.000000, 81.683, -46.0198
5220.000000, 82.085, -44.4287
5300.000000, 82.519, -43.7473
5380.000000, 82.853, -44.2344
5450.000000, 83.005, -45.3536
5520.000000, 82.998, -46.7314
5600.000000, 82.795, -48.1448
5700.000000, 82.303, -48.9745
5800.000000, 81.658, -48.3274
5900.000000, 80.969, -46.1827
6000.000000, 80.313, -42.7604
6080.000000, 79.840, -39.2603
6150.000000, 79.479, -35.7468
6220.000000, 79.174, -31.9120
6300.000000, 78.897, -27.2413
6400.000000, 78.660, -21.1421
6500.000000, 78.536, -14.9025
6600.000000, 78.521, -8.6765
6700.000000, 78.605, -2.5919
6800.000000, 78.784, 3.3225
6900.000000, 79.077, 8.9938
7000.000000, 79.482, 14.3159
7100.000000, 79.978, 19.1676
7200.000000, 80.552, 23.4152
7300.000000, 81.191, 26.8906
7400.000000, 81.870, 29.4184
7500.000000, 82.554, 30.8681
7620.000000, 83.330, 31.1419
7750.000000, 84.021, 29.7941
7880.000000, 84.383, 27.1993
8000.000000, 84.402, 24.3366
8120.000000, 84.145, 21.7400
8250.000000, 83.620, 19.8690
8380.000000, 82.935, 19.2955
8500.000000, 82.241, 19.9171
8620.000000, 81.534, 21.4349
8750.000000, 80.771, 23.8322
8850.000000, 80.187, 26.0594
9000.000000, 79.311, 29.8879
9120.000000, 78.602, 33.3680
9250.000000, 77.819, 37.6364
9380.000000, 77.025, 42.5310
9500.000000, 76.299, 47.6835
9620.000000, 75.600, 53.4618
9750.000000, 74.900, 60.4010
9880.000000, 74.281, 67.9499
10000.000000, 73.798, 75.3373
10150.000000, 73.325, 84.9646
10300.000000, 72.998, 94.8105
10440.000000, 72.819, 104.0077
10600.000000, 72.758, 114.3708
10750.000000, 72.822, 123.8207
10900.000000, 72.995, 132.8876
11060.000000, 73.294, 141.9381
11200.000000, 73.628, 149.2649
11380.000000, 74.120, 157.9811
11500.000000, 74.504, 163.4118
11720.000000, 75.334, 171.9241
11800.000000, 75.647, 174.4517
12060.000000, 76.596, -179.2093
12200.000000, 77.033, -176.8055
12410.000000, 77.565, -174.2691
12500.000000, 77.750, -173.5205
12650.000000, 78.010, -172.7091
12800.000000, 78.209, -172.5055
13150.000000, 78.314, -175.0985
13200.000000, 78.260, -175.8479
13400.000000, 77.773, -179.5101
13600.000000, 76.758, 176.7838
13800.000000, 75.214, 174.6884
14000.000000, 73.293, 175.5893
14300.000000, 70.168, -176.5340
14500.000000, 68.166, -167.2568
14750.000000, 65.986, -151.5624
15000.000000, 64.513, -132.5390
15250.000000, 63.948, -114.7676
15500.000000, 63.710, -101.9824
15750.000000, 63.207, -90.3676
16000.000000, 62.768, -77.4734
16250.000000, 62.505, -64.5091
16500.000000, 62.164, -54.2420
16750.000000, 61.510, -39.1274
17000.000000, 61.746, -22.9616
17250.000000, 62.135, -9.8569
17500.000000, 63.086, 3.5796
17750.000000, 64.332, 11.1120
18000.000000, 65.303, 14.9660
18250.000000, 66.082, 16.6258
18500.000000, 66.547, 15.8622
18750.000000, 66.543, 13.6848
19000.000000, 66.070, 11.5149
19250.000000, 65.218, 10.0787
19500.000000, 64.048, 9.4123
19750.000000, 62.580, 9.4382
20000.000000, 60.749, 10.4512
20300.000000, 58.059, 13.8644
20600.000000, 55.045, 20.2785
20900.000000, 51.875, 29.6856
21200.000000, 48.625, 41.5420
21400.000000, 46.400, 50.6090
21800.000000, 41.803, 70.9985
22000.000000, 39.412, 81.9372
22400.000000, 34.380, 103.8421
22700.000000, 30.471, 118.7492
23000.000000, 27.852, 131.8290
23300.000000, 29.040, 144.1200
23600.000000, 31.384, 144.5250
24000.000000, 32.445, -118.7001
