* Measurement data measured by REW V5.31.3
* Source: Analog 1/2 (E2x2), LINE_IN (Master Volume), L, volume: 1.000. Timing signal peak level -36.5 dBFS, measurement signal peak level -21.3 dBFS
* Format: 2M Log Swept Sine, 1 sweep at -42.2 dBFS using an acoustic timing reference
* Dated: Feb 18, 2025 7:38:47 PM
* REW Settings:
*  C-weighting compensation: Off
*  Target level: 85.0 dB
* Note: ; E2x2 Delay -0.0183 ms (-6.3 mm, -0.25 in) using estimated IR delay relative to Acoustic reference played from LINE_OUT R with no timing offset
* Measurement: R
* Smoothing: 1/24 octave
* Frequency Step: 1/48 octave
* Start Frequency: 1.000 Hz
*
* Freq(Hz), SPL(dB), Phase(degrees)
1.000000, 42.115, 30.9848
1.015000, 42.372, 31.0299
1.030000, 42.631, 31.3383
1.044000, 42.873, 31.8283
1.060000, 43.149, 32.5911
1.075000, 43.405, 33.4536
1.090000, 43.658, 34.2709
1.106000, 43.927, 34.3760
1.120000, 44.172, 33.8401
1.138000, 44.503, 33.1879
1.150000, 44.734, 32.8845
1.172000, 45.177, 32.4687
1.180000, 45.343, 32.2702
1.206000, 45.901, 31.8286
1.220000, 46.210, 31.6882
1.241000, 46.684, 31.5694
1.250000, 46.889, 31.5444
1.265000, 47.235, 31.5282
1.280000, 47.582, 31.5355
1.315000, 48.395, 31.6008
1.320000, 48.511, 31.6122
1.340000, 48.971, 31.6555
1.360000, 49.424, 31.6935
1.380000, 49.867, 31.5476
1.400000, 50.297, 31.3146
1.430000, 50.913, 30.9129
1.450000, 51.300, 30.6094
1.475000, 51.757, 30.2281
1.500000, 52.193, 29.9414
1.525000, 52.613, 29.7790
1.550000, 53.019, 29.7211
1.575000, 53.413, 29.6521
1.600000, 53.795, 29.4774
1.625000, 54.167, 29.3456
1.650000, 54.529, 29.2407
1.675000, 54.884, 29.1494
1.700000, 55.232, 29.0607
1.725000, 55.574, 28.9651
1.750000, 55.911, 28.8553
1.775000, 56.246, 28.6624
1.800000, 56.578, 28.3221
1.825000, 56.908, 27.9618
1.850000, 57.236, 27.6033
1.875000, 57.558, 27.2814
1.900000, 57.874, 27.0047
1.925000, 58.184, 26.7688
1.950000, 58.488, 26.5691
1.975000, 58.787, 26.3388
2.000000, 59.081, 26.0140
2.030000, 59.428, 25.6516
2.060000, 59.769, 25.3032
2.090000, 60.104, 24.9604
2.120000, 60.433, 24.6152
2.140000, 60.651, 24.3804
2.180000, 61.080, 23.8308
2.200000, 61.292, 23.4907
2.240000, 61.708, 22.8270
2.270000, 62.014, 22.3594
2.300000, 62.313, 21.9196
2.330000, 62.607, 21.5055
2.360000, 62.896, 21.1130
2.400000, 63.273, 20.4785
2.430000, 63.551, 20.0002
2.470000, 63.915, 19.3784
2.500000, 64.184, 18.9189
2.540000, 64.536, 18.3093
2.580000, 64.883, 17.6558
2.620000, 65.222, 16.9225
2.650000, 65.472, 16.3901
2.690000, 65.798, 15.7039
2.720000, 66.037, 15.2074
2.760000, 66.351, 14.5732
2.800000, 66.658, 13.8616
2.850000, 67.034, 12.9870
2.900000, 67.401, 12.1400
2.950000, 67.760, 11.3130
3.000000, 68.109, 10.4225
3.040000, 68.381, 9.6974
3.070000, 68.580, 9.1660
3.110000, 68.842, 8.4762
3.150000, 69.098, 7.8086
3.200000, 69.412, 6.9407
3.250000, 69.719, 6.0761
3.300000, 70.020, 5.2416
3.350000, 70.313, 4.4310
3.400000, 70.599, 3.5728
3.450000, 70.878, 2.7104
3.500000, 71.150, 1.8765
3.550000, 71.416, 1.0756
3.600000, 71.677, 0.2564
3.650000, 71.933, -0.5521
3.700000, 72.184, -1.3340
3.750000, 72.429, -2.0965
3.820000, 72.763, -3.2008
3.870000, 72.995, -3.9774
3.950000, 73.359, -5.1650
4.000000, 73.581, -5.9097
4.060000, 73.843, -6.7904
4.120000, 74.100, -7.6421
4.180000, 74.351, -8.4802
4.250000, 74.637, -9.4819
4.310000, 74.877, -10.3082
4.370000, 75.114, -11.1116
4.440000, 75.386, -12.0645
4.500000, 75.614, -12.8581
4.550000, 75.801, -13.5026
4.620000, 76.059, -14.4233
4.680000, 76.276, -15.2012
4.750000, 76.526, -16.0844
4.820000, 76.771, -16.9810
4.870000, 76.944, -17.6153
4.940000, 77.182, -18.4840
5.000000, 77.383, -19.2344
5.080000, 77.646, -20.2333
5.150000, 77.872, -21.0902
5.220000, 78.094, -21.9618
5.300000, 78.343, -22.9509
5.380000, 78.586, -23.9256
5.450000, 78.794, -24.7912
5.520000, 78.999, -25.6424
5.600000, 79.227, -26.6175
5.700000, 79.505, -27.8416
5.800000, 79.775, -29.0477
5.900000, 80.036, -30.2501
6.000000, 80.288, -31.4426
6.080000, 80.484, -32.3995
6.150000, 80.652, -33.2176
6.220000, 80.816, -34.0365
6.300000, 80.998, -34.9588
6.400000, 81.219, -36.0988
6.500000, 81.433, -37.2277
6.600000, 81.640, -38.3262
6.700000, 81.841, -39.4103
6.800000, 82.035, -40.4718
6.900000, 82.224, -41.5156
7.000000, 82.408, -42.5279
7.100000, 82.586, -43.5227
7.200000, 82.760, -44.4924
7.300000, 82.930, -45.4433
7.400000, 83.097, -46.3668
7.500000, 83.260, -47.2748
7.620000, 83.452, -48.3352
7.750000, 83.655, -49.4503
7.880000, 83.854, -50.5424
8.000000, 84.034, -51.5219
8.120000, 84.211, -52.4829
8.250000, 84.400, -53.5033
8.380000, 84.586, -54.5023
8.500000, 84.755, -55.4129
8.620000, 84.922, -56.3099
8.750000, 85.100, -57.2710
8.850000, 85.235, -58.0066
9.000000, 85.435, -59.0974
9.120000, 85.591, -59.9665
9.250000, 85.758, -60.9052
9.380000, 85.921, -61.8381
9.500000, 86.069, -62.7000
9.620000, 86.214, -63.5582
9.750000, 86.365, -64.4861
9.880000, 86.504, -65.4104
10.000000, 86.618, -66.2540
10.150000, 86.745, -67.3257
10.300000, 86.858, -68.3715
10.440000, 86.954, -69.3235
10.600000, 87.056, -70.3770
10.750000, 87.148, -71.3266
10.900000, 87.238, -72.2394
11.060000, 87.330, -73.1871
11.200000, 87.409, -74.0068
11.380000, 87.507, -75.0136
11.500000, 87.571, -75.6567
11.720000, 87.690, -76.7879
11.800000, 87.734, -77.1865
12.060000, 87.883, -78.4611
12.200000, 87.965, -79.1589
12.410000, 88.089, -80.1930
12.500000, 88.141, -80.6335
12.650000, 88.226, -81.3646
12.800000, 88.309, -82.0907
13.150000, 88.491, -83.7865
13.200000, 88.516, -84.0294
13.400000, 88.613, -84.9861
13.600000, 88.706, -85.9136
13.800000, 88.797, -86.8085
14.000000, 88.884, -87.6732
14.300000, 89.011, -88.9539
14.500000, 89.093, -89.7794
14.750000, 89.193, -90.7867
15.000000, 89.292, -91.7741
15.250000, 89.391, -92.7699
15.500000, 89.486, -93.7407
15.750000, 89.574, -94.6764
16.000000, 89.658, -95.5676
16.250000, 89.738, -96.4325
16.500000, 89.818, -97.2500
16.750000, 89.899, -98.0288
17.000000, 89.985, -98.7871
17.250000, 90.075, -99.5569
17.500000, 90.165, -100.3360
17.750000, 90.252, -101.1281
18.000000, 90.335, -101.9307
18.250000, 90.410, -102.7455
18.500000, 90.478, -103.5423
18.750000, 90.540, -104.3025
19.000000, 90.598, -105.0138
19.250000, 90.654, -105.6847
19.500000, 90.712, -106.3043
19.750000, 90.773, -106.8823
20.000000, 90.837, -107.4343
20.299999, 90.920, -108.1001
20.600000, 91.006, -108.7739
20.900000, 91.092, -109.4684
21.200001, 91.175, -110.1935
21.400000, 91.226, -110.6880
21.799999, 91.319, -111.6769
22.000000, 91.361, -112.1617
22.400000, 91.434, -113.0999
22.700001, 91.484, -113.7495
23.000000, 91.532, -114.3474
23.299999, 91.581, -114.9064
23.600000, 91.634, -115.4348
24.000000, 91.713, -116.1290
24.299999, 91.775, -116.6753
24.700001, 91.857, -117.4452
25.000000, 91.912, -118.0448
25.400000, 91.975, -118.8500
25.799999, 92.028, -119.6085
26.200001, 92.075, -120.3026
26.500000, 92.112, -120.7876
26.900000, 92.164, -121.4059
27.200001, 92.205, -121.8676
27.600000, 92.259, -122.4870
28.000000, 92.310, -123.1017
28.500000, 92.371, -123.8550
29.000000, 92.429, -124.5802
29.500000, 92.485, -125.2911
30.000000, 92.538, -125.9797
30.400000, 92.577, -126.5123
30.700001, 92.607, -126.8990
31.100000, 92.647, -127.4088
31.500000, 92.689, -127.9294
32.000000, 92.737, -128.5967
32.500000, 92.777, -129.2654
33.000000, 92.810, -129.8886
33.500000, 92.841, -130.4507
34.000000, 92.879, -130.9695
34.500000, 92.924, -131.4906
35.000000, 92.970, -132.0355
35.500000, 93.011, -132.5950
36.000000, 93.047, -133.1346
36.500000, 93.081, -133.6421
37.000000, 93.116, -134.1320
37.500000, 93.151, -134.6323
38.200001, 93.187, -135.3191
38.700001, 93.206, -135.7373
39.500000, 93.249, -136.2721
40.000000, 93.290, -136.6236
40.599998, 93.338, -137.1367
41.200001, 93.372, -137.6655
41.799999, 93.401, -138.1160
42.500000, 93.451, -138.6142
43.099998, 93.496, -139.1321
43.700001, 93.522, -139.6768
44.400002, 93.536, -140.1419
45.000000, 93.565, -140.3994
45.500000, 93.608, -140.6466
46.200001, 93.668, -141.1687
46.799999, 93.696, -141.6881
47.500000, 93.709, -142.1823
48.200001, 93.725, -142.5433
48.700001, 93.745, -142.7955
49.400002, 93.772, -143.1977
50.000000, 93.790, -143.5617
50.799999, 93.807, -144.0049
51.500000, 93.826, -144.3495
52.200001, 93.853, -144.7065
53.000000, 93.883, -145.1551
53.799999, 93.908, -145.5862
54.500000, 93.933, -145.9312
55.200001, 93.958, -146.2645
56.000000, 93.988, -146.5959
57.000000, 94.042, -147.0093
58.000000, 94.081, -147.5967
59.000000, 94.081, -148.0394
60.000000, 94.100, -148.3110
60.799999, 94.121, -148.6232
61.500000, 94.128, -148.9006
62.200001, 94.137, -149.1260
63.000000, 94.156, -149.3908
64.000000, 94.176, -149.7891
65.000000, 94.188, -150.1355
66.000000, 94.204, -150.3992
67.000000, 94.228, -150.6286
68.000000, 94.259, -150.8889
69.000000, 94.285, -151.2292
70.000000, 94.297, -151.5867
71.000000, 94.298, -151.8955
72.000000, 94.302, -152.0935
73.000000, 94.328, -152.2945
74.000000, 94.356, -152.6066
75.000000, 94.375, -152.9111
76.199997, 94.399, -153.2345
77.500000, 94.422, -153.5755
78.800003, 94.441, -153.8967
80.000000, 94.453, -154.1689
81.199997, 94.467, -154.4168
82.500000, 94.482, -154.7062
83.800003, 94.496, -154.9600
85.000000, 94.515, -155.1974
86.199997, 94.535, -155.4527
87.500000, 94.555, -155.7142
88.500000, 94.574, -155.9205
90.000000, 94.590, -156.2870
91.199997, 94.593, -156.4533
92.500000, 94.612, -156.5577
93.800003, 94.634, -156.7242
95.000000, 94.649, -156.8754
96.199997, 94.663, -157.0238
97.500000, 94.678, -157.2010
98.800003, 94.693, -157.3999
100.000000, 94.704, -157.6006
101.500000, 94.714, -157.8110
103.000000, 94.727, -157.9637
104.400002, 94.742, -158.1179
106.000000, 94.756, -158.3001
107.500000, 94.771, -158.4579
109.000000, 94.787, -158.6179
110.599998, 94.802, -158.7722
112.000000, 94.812, -158.8923
113.800003, 94.823, -159.0603
115.000000, 94.831, -159.1840
117.199997, 94.859, -159.4933
118.000000, 94.870, -159.6399
120.599998, 94.880, -159.9933
122.000000, 94.890, -159.9589
124.099998, 94.918, -159.9850
125.000000, 94.926, -160.0361
126.500000, 94.934, -160.1193
128.000000, 94.946, -160.1917
131.500000, 94.986, -160.4079
132.000000, 94.992, -160.4391
134.000000, 95.010, -160.5655
136.000000, 95.027, -160.7065
138.000000, 95.047, -160.8403
140.000000, 95.073, -160.9297
143.000000, 95.113, -161.0429
145.000000, 95.138, -161.1283
147.500000, 95.163, -161.2607
150.000000, 95.190, -161.3528
152.500000, 95.218, -161.4534
155.000000, 95.242, -161.5293
157.500000, 95.267, -161.6210
160.000000, 95.289, -161.7065
162.500000, 95.313, -161.7722
165.000000, 95.340, -161.8399
167.500000, 95.365, -161.9135
170.000000, 95.385, -161.9858
172.500000, 95.398, -162.0485
175.000000, 95.410, -162.0754
177.500000, 95.428, -162.1327
180.000000, 95.446, -162.2064
182.500000, 95.468, -162.2348
185.000000, 95.496, -162.2738
187.500000, 95.519, -162.3352
190.000000, 95.542, -162.3549
192.500000, 95.568, -162.3773
195.000000, 95.595, -162.3859
197.500000, 95.621, -162.4154
200.000000, 95.645, -162.4702
203.000000, 95.673, -162.5074
206.000000, 95.700, -162.4796
209.000000, 95.727, -162.4788
212.000000, 95.751, -162.4908
214.000000, 95.771, -162.4777
218.000000, 95.816, -162.4698
220.000000, 95.836, -162.4858
224.000000, 95.876, -162.5033
227.000000, 95.907, -162.5147
230.000000, 95.938, -162.5139
233.000000, 95.969, -162.5122
236.000000, 96.000, -162.5386
240.000000, 96.043, -162.5974
243.000000, 96.076, -162.5332
247.000000, 96.121, -162.4644
250.000000, 96.155, -162.4456
254.000000, 96.197, -162.4188
258.000000, 96.242, -162.3745
262.000000, 96.297, -162.3315
265.000000, 96.336, -162.3005
269.000000, 96.384, -162.2893
272.000000, 96.421, -162.2755
276.000000, 96.471, -162.2350
280.000000, 96.521, -162.1960
285.000000, 96.590, -162.1465
290.000000, 96.663, -162.0953
295.000000, 96.734, -162.0655
300.000000, 96.805, -162.0476
304.000000, 96.862, -161.9898
307.000000, 96.905, -161.9437
311.000000, 96.964, -161.8982
315.000000, 97.023, -161.8558
320.000000, 97.102, -161.8045
325.000000, 97.178, -161.7403
330.000000, 97.254, -161.6183
335.000000, 97.331, -161.4825
340.000000, 97.416, -161.3368
345.000000, 97.515, -161.2235
350.000000, 97.617, -161.1735
355.000000, 97.715, -161.1729
360.000000, 97.807, -161.1814
365.000000, 97.893, -161.1815
370.000000, 97.981, -161.1623
375.000000, 98.075, -161.1451
382.000000, 98.208, -161.1190
387.000000, 98.304, -161.0861
395.000000, 98.464, -161.0486
400.000000, 98.567, -161.0346
406.000000, 98.691, -161.0383
412.000000, 98.814, -161.0361
418.000000, 98.942, -161.0428
425.000000, 99.100, -161.0410
431.000000, 99.240, -161.0486
437.000000, 99.384, -161.0729
444.000000, 99.556, -161.1107
450.000000, 99.707, -161.1691
455.000000, 99.838, -161.2294
462.000000, 100.025, -161.3246
468.000000, 100.189, -161.4165
475.000000, 100.387, -161.5429
482.000000, 100.593, -161.7084
487.000000, 100.746, -161.8536
494.000000, 100.970, -162.0546
500.000000, 101.167, -162.2486
508.000000, 101.437, -162.5714
515.000000, 101.683, -162.8964
522.000000, 101.935, -163.2561
530.000000, 102.235, -163.7469
538.000000, 102.550, -164.3206
545.000000, 102.838, -164.8849
552.000000, 103.136, -165.5132
560.000000, 103.489, -166.3373
570.000000, 103.949, -167.5448
580.000000, 104.432, -168.9626
590.000000, 104.936, -170.6709
600.000000, 105.457, -172.6989
608.000000, 105.888, -174.5716
615.000000, 106.272, -176.4343
622.000000, 106.661, -178.5324
630.000000, 107.106, 178.7540
640.000000, 107.651, 174.8287
650.000000, 108.168, 170.2846
660.000000, 108.637, 165.0786
670.000000, 109.025, 159.2659
680.000000, 109.308, 152.9239
690.000000, 109.475, 146.2081
700.000000, 109.507, 139.2584
710.000000, 109.395, 132.3723
720.000000, 109.155, 125.6974
730.000000, 108.797, 119.3672
740.000000, 108.332, 113.6417
750.000000, 107.792, 108.5873
762.000000, 107.089, 103.3016
775.000000, 106.290, 98.5544
788.000000, 105.482, 94.6750
800.000000, 104.750, 91.8180
812.000000, 104.041, 89.5001
825.000000, 103.302, 87.4789
838.000000, 102.595, 85.8636
850.000000, 101.967, 84.6740
862.000000, 101.351, 83.7854
875.000000, 100.697, 83.3004
885.000000, 100.235, 83.4447
900.000000, 99.739, 83.9476
912.000000, 99.438, 83.3748
925.000000, 99.030, 82.2913
938.000000, 98.565, 81.5517
950.000000, 98.139, 81.1448
962.000000, 97.730, 80.9042
975.000000, 97.307, 80.7339
988.000000, 96.899, 80.6169
1000.000000, 96.536, 80.5551
1015.000000, 96.101, 80.5178
1030.000000, 95.684, 80.5006
1044.000000, 95.308, 80.5058
1060.000000, 94.890, 80.5427
1075.000000, 94.506, 80.5923
1090.000000, 94.136, 80.6554
1106.000000, 93.759, 80.7405
1120.000000, 93.438, 80.8276
1138.000000, 93.033, 80.9548
1150.000000, 92.767, 81.0446
1172.000000, 92.284, 81.2252
1180.000000, 92.108, 81.3005
1206.000000, 91.536, 81.5901
1220.000000, 91.229, 81.7550
1241.000000, 90.770, 82.0438
1250.000000, 90.570, 82.1827
1265.000000, 90.230, 82.4492
1280.000000, 89.880, 82.7581
1315.000000, 89.000, 83.6265
1320.000000, 88.863, 83.7873
1340.000000, 88.268, 84.6128
1360.000000, 87.549, 85.9937
1380.000000, 86.689, 88.8863
1400.000000, 85.880, 95.7598
1430.000000, 86.662, 113.3755
1450.000000, 88.262, 114.4793
1475.000000, 89.002, 105.9604
1500.000000, 88.570, 99.4628
1525.000000, 87.857, 96.6888
1550.000000, 87.177, 95.9448
1575.000000, 86.560, 96.1367
1600.000000, 85.990, 96.7788
1625.000000, 85.451, 97.7141
1650.000000, 84.928, 98.8841
1675.000000, 84.417, 100.2304
1700.000000, 83.912, 101.7444
1725.000000, 83.407, 103.4626
1750.000000, 82.901, 105.4011
1775.000000, 82.390, 107.5757
1800.000000, 81.871, 110.0465
1825.000000, 81.342, 112.8586
1850.000000, 80.808, 116.1192
1875.000000, 80.283, 119.8495
1900.000000, 79.773, 124.1515
1925.000000, 79.286, 129.1742
1950.000000, 78.853, 135.0918
1975.000000, 78.526, 141.9132
2000.000000, 78.363, 149.6584
2030.000000, 78.477, 159.7734
2060.000000, 78.984, 169.9018
2090.000000, 79.883, 179.0074
2120.000000, 81.082, -173.9064
2140.000000, 81.983, -170.4665
2180.000000, 83.889, -166.8619
2200.000000, 84.830, -166.6840
2240.000000, 86.561, -169.2003
2270.000000, 87.630, -173.1980
2300.000000, 88.438, -178.4187
2330.000000, 88.969, 175.6982
2360.000000, 89.235, 169.7709
2400.000000, 89.252, 162.6140
2430.000000, 89.081, 158.0923
2470.000000, 88.707, 153.3219
2500.000000, 88.369, 150.6274
2540.000000, 87.886, 148.0450
2580.000000, 87.402, 146.3983
2620.000000, 86.939, 145.4566
2650.000000, 86.615, 145.1234
2690.000000, 86.215, 145.0356
2720.000000, 85.935, 145.1790
2760.000000, 85.588, 145.5799
2800.000000, 85.270, 146.1849
2850.000000, 84.908, 147.1483
2900.000000, 84.584, 148.2980
2950.000000, 84.291, 149.5760
3000.000000, 84.027, 150.9455
3040.000000, 83.836, 152.1023
3070.000000, 83.703, 152.9993
3110.000000, 83.539, 154.2137
3150.000000, 83.389, 155.4442
3200.000000, 83.217, 156.9952
3250.000000, 83.061, 158.5578
3300.000000, 82.922, 160.1260
3350.000000, 82.798, 161.7189
3400.000000, 82.688, 163.3174
3450.000000, 82.596, 164.9132
3500.000000, 82.522, 166.5174
3550.000000, 82.461, 168.1149
3600.000000, 82.411, 169.7020
3650.000000, 82.375, 171.2755
3700.000000, 82.348, 172.8291
3750.000000, 82.329, 174.3591
3820.000000, 82.316, 176.4694
3870.000000, 82.314, 177.9396
3950.000000, 82.316, -179.7847
4000.000000, 82.319, -178.4061
4060.000000, 82.325, -176.7777
4120.000000, 82.331, -175.1469
4180.000000, 82.334, -173.4566
4250.000000, 82.348, -171.3643
4310.000000, 82.377, -169.5244
4370.000000, 82.403, -167.6631
4440.000000, 82.438, -165.3286
4500.000000, 82.496, -163.0438
4550.000000, 82.614, -160.9062
4620.000000, 82.894, -158.5902
4680.000000, 83.109, -157.2819
4750.000000, 83.332, -155.8021
4820.000000, 83.566, -154.4185
4870.000000, 83.739, -153.5582
4940.000000, 83.981, -152.5560
5000.000000, 84.179, -151.9076
5080.000000, 84.402, -151.3236
5150.000000, 84.533, -150.9340
5220.000000, 84.592, -150.3667
5300.000000, 84.584, -149.0758
5380.000000, 84.561, -146.5775
5450.000000, 84.633, -143.1916
5520.000000, 84.902, -138.9362
5600.000000, 85.529, -133.8573
5700.000000, 86.769, -128.8208
5800.000000, 88.355, -126.5732
5900.000000, 90.105, -127.7326
6000.000000, 91.836, -132.6391
6080.000000, 93.057, -139.3115
6150.000000, 93.888, -146.9035
6220.000000, 94.416, -155.5941
6300.000000, 94.603, -165.9104
6400.000000, 94.274, -177.7551
6500.000000, 93.526, 172.8362
6600.000000, 92.601, 166.1427
6700.000000, 91.665, 161.7148
6800.000000, 90.804, 158.9473
6900.000000, 90.060, 157.3819
7000.000000, 89.453, 156.7236
7100.000000, 88.979, 156.7206
7200.000000, 88.644, 157.1272
7300.000000, 88.451, 157.6634
7400.000000, 88.399, 158.0836
7500.000000, 88.490, 158.1166
7620.000000, 88.793, 157.2051
7750.000000, 89.310, 154.3470
7880.000000, 89.811, 148.6400
8000.000000, 90.062, 140.4417
8120.000000, 89.879, 130.0683
8250.000000, 89.017, 118.3822
8380.000000, 87.528, 108.6114
8500.000000, 85.817, 102.4517
8620.000000, 83.999, 99.1151
8750.000000, 82.070, 98.0643
8850.000000, 80.668, 98.6063
9000.000000, 78.733, 100.9333
9120.000000, 77.326, 103.7131
9250.000000, 75.930, 107.3622
9380.000000, 74.652, 111.5298
9500.000000, 73.571, 115.6949
9620.000000, 72.573, 120.0855
9750.000000, 71.579, 125.0389
9880.000000, 70.673, 130.1355
10000.000000, 69.906, 134.9749
10150.000000, 69.027, 141.1636
10300.000000, 68.230, 147.4673
10440.000000, 67.551, 153.4319
10600.000000, 66.851, 160.2783
10750.000000, 66.274, 166.7024
10900.000000, 65.761, 173.1055
11060.000000, 65.275, 179.8384
11200.000000, 64.878, -174.2447
11380.000000, 64.433, -166.4982
11500.000000, 64.191, -161.3563
11720.000000, 63.827, -152.0076
11800.000000, 63.716, -148.6211
12060.000000, 63.461, -137.6006
12200.000000, 63.379, -131.7411
12410.000000, 63.328, -123.1434
12500.000000, 63.338, -119.5085
12650.000000, 63.397, -113.4756
12800.000000, 63.501, -107.5183
13150.000000, 63.943, -94.2384
13200.000000, 64.030, -92.4149
13400.000000, 64.440, -85.2560
13600.000000, 64.984, -78.3533
13800.000000, 65.694, -71.7092
14000.000000, 66.636, -65.4987
14300.000000, 68.683, -57.9702
14500.000000, 70.624, -56.0181
14750.000000, 73.488, -61.7567
15000.000000, 75.585, -80.0844
15250.000000, 75.314, -104.8795
15500.000000, 72.737, -122.7924
15750.000000, 69.416, -128.5483
16000.000000, 66.516, -125.7294
16250.000000, 64.282, -118.7599
16500.000000, 62.598, -110.0186
16750.000000, 61.303, -100.5479
17000.000000, 60.280, -90.8327
17250.000000, 59.460, -80.9653
17500.000000, 58.822, -70.9843
17750.000000, 58.335, -61.0320
18000.000000, 57.950, -50.8124
18250.000000, 57.680, -40.2666
18500.000000, 57.572, -29.6268
18750.000000, 57.617, -18.8753
19000.000000, 57.808, -8.0409
19250.000000, 58.132, 2.6089
19500.000000, 58.595, 12.9339
19750.000000, 59.233, 22.8360
20000.000000, 60.020, 31.7876
20300.000000, 61.243, 40.0335
20600.000000, 62.603, 44.2134
20900.000000, 63.605, 44.3452
21200.000000, 63.897, 43.4522
21400.000000, 63.771, 44.2591
21800.000000, 63.528, 51.3891
22000.000000, 63.765, 57.0324
22400.000000, 65.342, 68.5793
22700.000000, 67.133, 74.4035
23000.000000, 68.547, 75.1900
23300.000000, 68.350, 71.8881
23600.000000, 65.648, 53.3865
24000.000000, 60.429, 20.2901
