* Measurement data measured by REW V5.31.3
* Source: Headset (Odo By VECLAN.COM), MICROPHONE (Master Volume), R, volume: 0.250
* Format: 1M Log Swept Sine, 1 sweep at -12.0 dBFS with no timing reference
* Dated: 02 9, 25 2:49:51 AM
* REW Settings:
*  C-weighting compensation: Off
*  Target level: 75.0 dB
* Note: ; 
* Measurement: d-fi 5/4 UUU L
* Smoothing: 1/24 octave
* Frequency Step: 1/48 octave
* Start Frequency: 1.000 Hz
*
* Freq(Hz) SPL(dB) Phase(degrees)
1.000000 35.858 -114.6120
1.015000 35.915 -108.2780
1.030000 36.001 -102.6748
1.044000 36.110 -98.1610
1.060000 36.273 -93.8292
1.075000 36.464 -90.4995
1.090000 36.696 -87.7802
1.106000 36.993 -85.3990
1.120000 37.300 -83.6010
1.138000 37.759 -81.5708
1.150000 38.102 -80.3728
1.172000 38.801 -78.4694
1.180000 39.075 -77.8646
1.206000 40.032 -76.1919
1.220000 40.582 -75.4624
1.241000 41.445 -74.5715
1.250000 41.826 -74.2593
1.265000 42.473 -73.8256
1.280000 43.131 -73.4936
1.315000 44.685 -73.0788
1.320000 44.907 -73.0575
1.340000 45.790 -73.0591
1.360000 46.655 -73.1914
1.380000 47.494 -73.4442
1.400000 48.297 -73.8079
1.430000 49.412 -74.5428
1.450000 50.084 -75.1427
1.475000 50.846 -75.9578
1.500000 51.550 -76.7295
1.525000 52.215 -77.4296
1.550000 52.845 -78.0852
1.575000 53.444 -78.7231
1.600000 54.016 -79.3647
1.625000 54.562 -80.0265
1.650000 55.087 -80.7212
1.675000 55.595 -81.4586
1.700000 56.087 -82.2460
1.725000 56.568 -83.0889
1.750000 57.040 -83.9911
1.775000 57.508 -84.9551
1.800000 57.973 -85.9813
1.825000 58.438 -87.0620
1.850000 58.899 -88.1618
1.875000 59.348 -89.2368
1.900000 59.785 -90.2779
1.925000 60.209 -91.2911
1.950000 60.621 -92.2843
1.975000 61.023 -93.2647
2.000000 61.415 -94.2390
2.030000 61.874 -95.4086
2.060000 62.322 -96.5872
2.090000 62.760 -97.7829
2.120000 63.190 -99.0029
2.140000 63.473 -99.8326
2.180000 64.032 -101.5359
2.200000 64.307 -102.4053
2.240000 64.847 -104.1396
2.270000 65.240 -105.4164
2.300000 65.624 -106.6716
2.330000 65.997 -107.9087
2.360000 66.363 -109.1316
2.400000 66.837 -110.7476
2.430000 67.185 -111.9542
2.470000 67.639 -113.5642
2.500000 67.973 -114.7778
2.540000 68.411 -116.4108
2.580000 68.840 -118.0593
2.620000 69.258 -119.7037
2.650000 69.563 -120.9259
2.690000 69.960 -122.5378
2.720000 70.250 -123.7333
2.760000 70.629 -125.3110
2.800000 70.998 -126.8726
2.850000 71.449 -128.8080
2.900000 71.888 -130.7332
2.950000 72.316 -132.6555
3.000000 72.731 -134.5712
3.040000 73.054 -136.0920
3.070000 73.290 -137.2233
3.110000 73.598 -138.7172
3.150000 73.899 -140.1937
3.200000 74.267 -142.0152
3.250000 74.625 -143.8120
3.300000 74.975 -145.5894
3.350000 75.316 -147.3557
3.400000 75.646 -149.1108
3.450000 75.967 -150.8486
3.500000 76.278 -152.5638
3.550000 76.582 -154.2528
3.600000 76.878 -155.9144
3.650000 77.168 -157.5499
3.700000 77.451 -159.1666
3.750000 77.727 -160.7713
3.820000 78.100 -162.9932
3.870000 78.358 -164.5569
3.950000 78.759 -167.0095
4.000000 79.003 -168.5098
4.060000 79.289 -170.2824
4.120000 79.567 -172.0350
4.180000 79.837 -173.7679
4.250000 80.142 -175.7589
4.310000 80.397 -177.4347
4.370000 80.646 -179.0807
4.440000 80.930 179.0306
4.500000 81.166 177.4307
4.550000 81.358 176.1109
4.620000 81.620 174.2872
4.680000 81.840 172.7487
4.750000 82.090 170.9833
4.820000 82.334 169.2431
4.870000 82.503 168.0114
4.940000 82.735 166.3042
5.000000 82.929 164.8595
5.080000 83.181 162.9632
5.150000 83.395 161.3298
5.220000 83.604 159.7128
5.300000 83.835 157.8833
5.380000 84.058 156.0798
5.450000 84.248 154.5272
5.520000 84.433 152.9966
5.600000 84.637 151.2647
5.700000 84.883 149.1268
5.800000 85.119 147.0318
5.900000 85.344 144.9836
6.000000 85.560 142.9670
6.080000 85.726 141.3779
6.150000 85.866 140.0109
6.220000 86.003 138.6685
6.300000 86.154 137.1595
6.400000 86.335 135.3032
6.500000 86.508 133.4859
6.600000 86.676 131.7150
6.700000 86.837 129.9851
6.800000 86.992 128.2902
6.900000 87.141 126.6330
7.000000 87.287 125.0152
7.100000 87.427 123.4316
7.200000 87.564 121.8788
7.300000 87.697 120.3565
7.400000 87.826 118.8631
7.500000 87.953 117.3950
7.620000 88.100 115.6642
7.750000 88.254 113.8242
7.880000 88.404 112.0155
8.000000 88.537 110.3735
8.120000 88.666 108.7563
8.250000 88.800 107.0285
8.380000 88.928 105.3293
8.500000 89.041 103.7872
8.620000 89.149 102.2676
8.750000 89.262 100.6513
8.850000 89.344 99.4312
9.000000 89.463 97.6353
9.120000 89.554 96.2304
9.250000 89.648 94.7425
9.380000 89.739 93.2867
9.500000 89.821 91.9709
9.620000 89.901 90.6814
9.750000 89.985 89.3113
9.880000 90.062 87.9658
10.000000 90.125 86.7437
10.150000 90.195 85.2399
10.300000 90.259 83.7583
10.440000 90.313 82.3929
10.600000 90.369 80.8527
10.750000 90.419 79.4272
10.900000 90.465 78.0206
11.060000 90.509 76.5458
11.200000 90.544 75.2774
11.380000 90.583 73.6848
11.500000 90.606 72.6491
11.720000 90.641 70.8088
11.800000 90.653 70.1602
12.060000 90.685 68.1268
12.200000 90.701 67.0793
12.410000 90.727 65.5648
12.500000 90.741 64.9344
12.650000 90.770 63.9068
12.800000 90.802 62.9030
13.150000 90.881 60.6317
13.200000 90.892 60.3132
13.400000 90.938 59.0505
13.600000 90.981 57.8021
13.800000 91.023 56.5651
14.000000 91.062 55.3396
14.300000 91.112 53.5257
14.500000 91.140 52.3371
14.750000 91.168 50.8819
15.000000 91.189 49.4679
15.250000 91.204 48.1030
15.500000 91.214 46.7918
15.750000 91.222 45.5342
16.000000 91.231 44.3247
16.250000 91.243 43.1509
16.500000 91.258 41.9981
16.750000 91.274 40.8510
17.000000 91.288 39.7002
17.250000 91.300 38.5455
17.500000 91.305 37.3967
17.750000 91.303 36.2729
18.000000 91.295 35.1949
18.250000 91.284 34.1804
18.500000 91.274 33.2359
18.750000 91.270 32.3520
19.000000 91.275 31.5066
19.250000 91.290 30.6659
19.500000 91.315 29.7983
19.750000 91.344 28.8810
20.000000 91.373 27.9055
20.299999 91.400 26.6723
20.600000 91.413 25.4077
20.900000 91.412 24.1594
21.200001 91.398 22.9673
21.400000 91.385 22.2148
21.799999 91.354 20.8121
22.000000 91.339 20.1550
22.400000 91.310 18.9072
22.700001 91.290 18.0187
23.000000 91.269 17.1684
23.299999 91.250 16.3564
23.600000 91.234 15.5769
24.000000 91.218 14.5629
24.299999 91.211 13.7968
24.700001 91.202 12.7424
25.000000 91.192 11.9277
25.400000 91.170 10.8363
25.799999 91.138 9.7803
26.200001 91.100 8.7872
26.500000 91.073 8.0814
26.900000 91.041 7.1715
27.200001 91.019 6.4973
27.600000 90.990 5.5996
28.000000 90.959 4.7105
28.500000 90.918 3.6373
29.000000 90.878 2.6218
29.500000 90.844 1.6447
30.000000 90.814 0.6673
30.400000 90.791 -0.1295
30.700001 90.770 -0.7318
31.100000 90.738 -1.5252
31.500000 90.701 -2.2880
32.000000 90.652 -3.1831
32.500000 90.605 -4.0262
33.000000 90.561 -4.8463
33.500000 90.518 -5.6572
34.000000 90.474 -6.4545
34.500000 90.432 -7.2398
35.000000 90.391 -8.0310
35.500000 90.349 -8.8385
36.000000 90.301 -9.6429
36.500000 90.248 -10.4083
37.000000 90.196 -11.1188
37.500000 90.149 -11.7928
38.200001 90.090 -12.7303
38.700001 90.049 -13.4062
39.500000 89.977 -14.4608
40.000000 89.932 -15.0862
40.599998 89.878 -15.8078
41.200001 89.827 -16.5169
41.799999 89.777 -17.2296
42.500000 89.715 -18.0693
43.099998 89.659 -18.7866
43.700001 89.599 -19.4865
44.400002 89.526 -20.2561
45.000000 89.466 -20.8721
45.500000 89.420 -21.3737
46.200001 89.357 -22.0835
46.799999 89.301 -22.6799
47.500000 89.234 -23.3216
48.200001 89.175 -23.9279
48.700001 89.135 -24.3668
49.400002 89.077 -24.9847
50.000000 89.026 -25.4967
50.799999 88.962 -26.1687
51.500000 88.905 -26.7733
52.200001 88.843 -27.3752
53.000000 88.770 -28.0247
53.799999 88.698 -28.6359
54.500000 88.638 -29.1581
55.200001 88.578 -29.6788
56.000000 88.507 -30.2605
57.000000 88.416 -30.9346
58.000000 88.330 -31.5500
59.000000 88.254 -32.1806
60.000000 88.174 -32.9004
60.799999 88.097 -33.4603
61.500000 88.028 -33.8805
62.200001 87.964 -34.2613
63.000000 87.896 -34.6789
64.000000 87.820 -35.1791
65.000000 87.752 -35.7045
66.000000 87.682 -36.2454
67.000000 87.611 -36.7867
68.000000 87.534 -37.3311
69.000000 87.454 -37.8340
70.000000 87.375 -38.3036
71.000000 87.299 -38.7547
72.000000 87.226 -39.2164
73.000000 87.149 -39.6461
74.000000 87.077 -40.0339
75.000000 87.006 -40.4400
76.199997 86.915 -40.8879
77.500000 86.823 -41.3237
78.800003 86.737 -41.8279
80.000000 86.646 -42.3468
81.199997 86.547 -42.7671
82.500000 86.452 -43.1255
83.800003 86.370 -43.4536
85.000000 86.303 -43.7593
86.199997 86.237 -44.0682
87.500000 86.166 -44.3927
88.500000 86.110 -44.6325
90.000000 86.032 -44.9501
91.199997 85.977 -45.2634
92.500000 85.910 -45.6605
93.800003 85.837 -46.0413
95.000000 85.769 -46.3563
96.199997 85.705 -46.6762
97.500000 85.628 -47.0319
98.800003 85.554 -47.2807
100.000000 85.500 -47.5151
101.500000 85.438 -47.8811
103.000000 85.363 -48.3102
104.400002 85.292 -48.5892
106.000000 85.224 -48.9672
107.500000 85.151 -49.3795
109.000000 85.063 -49.7423
110.599998 84.964 -50.0214
112.000000 84.884 -50.1919
113.800003 84.799 -50.4062
115.000000 84.752 -50.6158
117.199997 84.658 -51.0226
118.000000 84.624 -51.1384
120.599998 84.509 -51.5229
122.000000 84.440 -51.7117
124.099998 84.339 -52.0191
125.000000 84.300 -52.1721
126.500000 84.238 -52.4214
128.000000 84.183 -52.6585
131.500000 84.033 -53.0920
132.000000 84.012 -53.1101
134.000000 83.948 -53.2287
136.000000 83.879 -53.5627
138.000000 83.773 -53.6998
140.000000 83.674 -53.6202
143.000000 83.548 -53.5781
145.000000 83.501 -53.5503
147.500000 83.477 -53.4119
150.000000 83.467 -53.1607
152.500000 83.462 -53.0926
155.000000 83.485 -53.3642
157.500000 83.510 -53.9870
160.000000 83.492 -54.6169
162.500000 83.431 -55.2176
165.000000 83.345 -55.7802
167.500000 83.255 -56.2123
170.000000 83.166 -56.5410
172.500000 83.080 -56.8587
175.000000 82.995 -57.1867
177.500000 82.915 -57.4670
180.000000 82.837 -57.7066
182.500000 82.763 -57.9384
185.000000 82.692 -58.1718
187.500000 82.622 -58.3955
190.000000 82.550 -58.6029
192.500000 82.481 -58.7999
195.000000 82.413 -58.9884
197.500000 82.345 -59.1590
200.000000 82.282 -59.3087
203.000000 82.218 -59.4872
206.000000 82.160 -59.6782
209.000000 82.107 -59.8792
212.000000 82.057 -60.0862
214.000000 82.026 -60.2157
218.000000 81.963 -60.4435
220.000000 81.933 -60.5557
224.000000 81.871 -60.7936
227.000000 81.825 -60.9785
230.000000 81.780 -61.1663
233.000000 81.737 -61.3393
236.000000 81.693 -61.5185
240.000000 81.634 -61.7575
243.000000 81.596 -61.9162
247.000000 81.548 -62.1207
250.000000 81.509 -62.2876
254.000000 81.455 -62.5053
258.000000 81.401 -62.7036
262.000000 81.346 -62.9072
265.000000 81.306 -63.0700
269.000000 81.256 -63.2760
272.000000 81.219 -63.4299
276.000000 81.171 -63.6312
280.000000 81.126 -63.8211
285.000000 81.073 -64.0663
290.000000 81.021 -64.3067
295.000000 80.969 -64.5523
300.000000 80.919 -64.7836
304.000000 80.881 -64.9751
307.000000 80.853 -65.1223
311.000000 80.817 -65.3084
315.000000 80.781 -65.4848
320.000000 80.741 -65.7098
325.000000 80.705 -65.9432
330.000000 80.668 -66.1834
335.000000 80.633 -66.3987
340.000000 80.600 -66.6286
345.000000 80.566 -66.8952
350.000000 80.529 -67.1034
355.000000 80.495 -67.2986
360.000000 80.463 -67.5504
365.000000 80.435 -67.8427
370.000000 80.409 -68.0718
375.000000 80.383 -68.2659
382.000000 80.344 -68.5649
387.000000 80.318 -68.7884
395.000000 80.276 -69.1439
400.000000 80.251 -69.3670
406.000000 80.223 -69.6431
412.000000 80.197 -69.9181
418.000000 80.172 -70.1901
425.000000 80.146 -70.5140
431.000000 80.122 -70.7874
437.000000 80.099 -71.0606
444.000000 80.075 -71.3627
450.000000 80.056 -71.6261
455.000000 80.042 -71.8528
462.000000 80.023 -72.1686
468.000000 80.008 -72.4284
475.000000 79.990 -72.7341
482.000000 79.975 -73.0473
487.000000 79.966 -73.2725
494.000000 79.953 -73.5820
500.000000 79.943 -73.8552
508.000000 79.933 -74.2263
515.000000 79.928 -74.5646
522.000000 79.928 -74.9296
530.000000 79.936 -75.3601
538.000000 79.952 -75.8678
545.000000 79.978 -76.4433
552.000000 80.008 -77.2978
560.000000 79.996 -78.8577
570.000000 79.722 -81.0566
580.000000 79.279 -80.4521
590.000000 79.180 -78.4693
600.000000 79.261 -77.7732
608.000000 79.319 -77.7599
615.000000 79.355 -77.8856
622.000000 79.381 -78.0640
630.000000 79.401 -78.2944
640.000000 79.414 -78.5828
650.000000 79.421 -78.8754
660.000000 79.425 -79.1742
670.000000 79.428 -79.4669
680.000000 79.431 -79.7551
690.000000 79.432 -80.0239
700.000000 79.434 -80.2861
710.000000 79.440 -80.5579
720.000000 79.450 -80.8171
730.000000 79.461 -81.0701
740.000000 79.470 -81.3181
750.000000 79.479 -81.5523
762.000000 79.490 -81.8238
775.000000 79.505 -82.1180
788.000000 79.523 -82.3904
800.000000 79.542 -82.6262
812.000000 79.567 -82.8801
825.000000 79.596 -83.1312
838.000000 79.625 -83.3659
850.000000 79.654 -83.5887
862.000000 79.687 -83.8075
875.000000 79.725 -84.0502
885.000000 79.759 -84.2385
900.000000 79.817 -84.5301
912.000000 79.869 -84.7716
925.000000 79.929 -85.0442
938.000000 79.992 -85.3220
950.000000 80.052 -85.5919
962.000000 80.116 -85.8747
975.000000 80.187 -86.1969
988.000000 80.261 -86.5412
1000.000000 80.332 -86.8802
1015.000000 80.424 -87.3353
1030.000000 80.519 -87.8193
1044.000000 80.609 -88.3073
1060.000000 80.712 -88.9100
1075.000000 80.808 -89.5078
1090.000000 80.904 -90.1353
1106.000000 81.008 -90.8403
1120.000000 81.097 -91.4830
1138.000000 81.207 -92.3310
1150.000000 81.278 -92.9160
1172.000000 81.403 -94.0247
1180.000000 81.448 -94.4362
1206.000000 81.593 -95.8097
1220.000000 81.668 -96.5677
1241.000000 81.769 -97.7073
1250.000000 81.809 -98.1933
1265.000000 81.874 -99.0109
1280.000000 81.940 -99.8351
1315.000000 82.087 -101.7496
1320.000000 82.107 -102.0226
1340.000000 82.184 -103.1126
1360.000000 82.257 -104.1873
1380.000000 82.327 -105.2466
1400.000000 82.394 -106.2900
1430.000000 82.488 -107.8176
1450.000000 82.548 -108.8136
1475.000000 82.619 -110.0372
1500.000000 82.687 -111.2351
1525.000000 82.755 -112.4047
1550.000000 82.820 -113.5442
1575.000000 82.885 -114.6604
1600.000000 82.947 -115.7615
1625.000000 83.007 -116.8449
1650.000000 83.067 -117.9093
1675.000000 83.126 -118.9544
1700.000000 83.186 -119.9857
1725.000000 83.245 -120.9973
1750.000000 83.304 -121.9898
1775.000000 83.363 -122.9619
1800.000000 83.422 -123.9138
1825.000000 83.481 -124.8493
1850.000000 83.542 -125.7778
1875.000000 83.603 -126.6995
1900.000000 83.663 -127.6132
1925.000000 83.723 -128.5111
1950.000000 83.781 -129.3938
1975.000000 83.840 -130.2610
2000.000000 83.899 -131.1145
2030.000000 83.971 -132.1190
2060.000000 84.042 -133.1019
2090.000000 84.113 -134.0439
2120.000000 84.183 -134.9351
2140.000000 84.231 -135.4975
2180.000000 84.330 -136.5078
2200.000000 84.382 -136.9408
2240.000000 84.506 -137.6789
2270.000000 84.628 -138.1978
2300.000000 84.778 -138.7739
2330.000000 84.947 -139.4577
2360.000000 85.129 -140.2858
2400.000000 85.378 -141.6439
2430.000000 85.560 -142.8452
2470.000000 85.779 -144.6094
2500.000000 85.927 -145.9913
2540.000000 86.109 -147.8392
2580.000000 86.278 -149.6652
2620.000000 86.439 -151.4751
2650.000000 86.556 -152.8358
2690.000000 86.709 -154.6665
2720.000000 86.822 -156.0641
2760.000000 86.971 -157.9850
2800.000000 87.111 -160.0041
2850.000000 87.267 -162.7665
2900.000000 87.339 -166.0280
2950.000000 87.101 -168.7780
3000.000000 86.938 -167.1687
3040.000000 87.280 -166.9326
3070.000000 87.533 -168.2614
3110.000000 87.762 -170.5088
3150.000000 87.918 -172.6921
3200.000000 88.071 -175.3758
3250.000000 88.191 -178.1232
3300.000000 88.275 179.0616
3350.000000 88.321 176.2108
3400.000000 88.334 173.3791
3450.000000 88.314 170.6024
3500.000000 88.265 167.9009
3550.000000 88.189 165.2883
3600.000000 88.087 162.7760
3650.000000 87.958 160.3774
3700.000000 87.810 158.1013
3750.000000 87.643 155.9579
3820.000000 87.380 153.1896
3870.000000 87.176 151.3967
3950.000000 86.829 148.8493
4000.000000 86.605 147.4531
4060.000000 86.335 145.9722
4120.000000 86.063 144.6907
4180.000000 85.787 143.5952
4250.000000 85.465 142.5425
4310.000000 85.192 141.8398
4370.000000 84.923 141.3244
4440.000000 84.613 140.9374
4500.000000 84.353 140.7593
4550.000000 84.141 140.7076
4620.000000 83.851 140.7924
4680.000000 83.610 141.0130
4750.000000 83.339 141.4250
4820.000000 83.080 141.9941
4870.000000 82.902 142.4964
4940.000000 82.659 143.3208
5000.000000 82.453 144.1303
5080.000000 82.177 145.3589
5150.000000 81.942 146.5807
5220.000000 81.721 147.9386
5300.000000 81.489 149.6320
5380.000000 81.279 151.4387
5450.000000 81.111 153.1196
5520.000000 80.959 154.9021
5600.000000 80.805 157.0486
5700.000000 80.641 159.8577
5800.000000 80.511 162.7711
5900.000000 80.417 165.7915
6000.000000 80.357 168.9166
6080.000000 80.335 171.4714
6150.000000 80.337 173.7430
6220.000000 80.361 176.0469
6300.000000 80.423 178.7029
6400.000000 80.559 -177.9681
6500.000000 80.752 -174.6210
6600.000000 80.995 -171.2722
6700.000000 81.283 -167.9579
6800.000000 81.624 -164.7111
6900.000000 82.023 -161.5698
7000.000000 82.489 -158.5940
7100.000000 83.025 -155.8716
7200.000000 83.634 -153.4994
7300.000000 84.320 -151.6086
7400.000000 85.084 -150.3734
7500.000000 85.919 -150.0288
7620.000000 86.983 -151.2156
7750.000000 88.113 -155.0794
7880.000000 89.017 -161.9623
8000.000000 89.407 -170.4898
8120.000000 89.205 -179.6784
8250.000000 88.349 171.8737
8380.000000 87.142 166.5136
8500.000000 85.923 163.5187
8620.000000 84.594 162.6841
8750.000000 83.198 164.0631
8850.000000 82.206 166.2545
9000.000000 80.872 170.8916
9120.000000 79.944 175.3668
9250.000000 79.055 -179.5003
9380.000000 78.194 -173.9782
9500.000000 77.491 -167.8571
9620.000000 76.943 -161.6692
9750.000000 76.442 -155.2192
9880.000000 75.996 -148.8221
10000.000000 75.641 -142.9071
10150.000000 75.282 -135.4985
10300.000000 75.004 -128.0883
10440.000000 74.804 -121.2154
10600.000000 74.637 -113.5092
10750.000000 74.530 -106.4818
10900.000000 74.463 -99.6813
11060.000000 74.425 -92.7138
11200.000000 74.404 -86.8679
11380.000000 74.378 -79.7226
11500.000000 74.350 -75.1958
11720.000000 74.248 -67.2767
11800.000000 74.189 -64.4785
12060.000000 73.894 -55.4542
12200.000000 73.664 -50.4582
12410.000000 73.244 -42.3014
12500.000000 73.053 -38.4460
12650.000000 72.763 -31.5646
12800.000000 72.537 -24.4965
13150.000000 72.046 -9.0767
13200.000000 71.956 -6.8613
13400.000000 71.570 2.6239
13600.000000 71.241 13.2028
13800.000000 71.029 24.2305
14000.000000 70.885 35.6112
14300.000000 71.175 56.1719
14500.000000 72.030 67.3398
14750.000000 72.951 76.0682
15000.000000 73.819 82.1919
15250.000000 74.720 80.2738
15500.000000 75.322 71.5704
15750.000000 75.224 60.8513
16000.000000 74.254 50.0093
16250.000000 72.481 42.0312
16500.000000 70.185 39.4649
16750.000000 67.778 43.9298
17000.000000 65.964 54.4330
17250.000000 65.020 64.5203
17500.000000 64.332 72.2419
17750.000000 63.659 80.2179
18000.000000 63.163 88.9187
18250.000000 62.893 97.3201
18500.000000 62.737 105.0173
18750.000000 62.652 112.8543
19000.000000 62.788 121.4597
19250.000000 63.348 130.0494
19500.000000 64.361 136.6218
19750.000000 65.512 139.4068
20000.000000 66.221 139.0627
