* Measurement data measured by REW V5.31.3
* Source: Headset (Odo By VECLAN.COM), MICROPHONE (Master Volume), R, volume: 0.250
* Format: 1M Log Swept Sine, 1 sweep at -12.0 dBFS with no timing reference
* Dated: 02 8, 25 9:34:42 AM
* REW Settings:
*  C-weighting compensation: Off
*  Target level: 75.0 dB
* Note: ; 
* Measurement: d-fi 4/4 L
* Smoothing: 1/24 octave
* Frequency Step: 1/48 octave
* Start Frequency: 1.000 Hz
*
* Freq(Hz) SPL(dB) Phase(degrees)
1.000000 45.591 -3.2246
1.015000 45.785 -5.0133
1.030000 45.982 -6.8163
1.044000 46.169 -8.5153
1.060000 46.387 -10.4794
1.075000 46.595 -12.3458
1.090000 46.807 -14.2376
1.106000 47.038 -16.2766
1.120000 47.244 -18.0607
1.138000 47.513 -20.3356
1.150000 47.696 -21.8354
1.172000 48.035 -24.5421
1.180000 48.160 -25.5111
1.206000 48.570 -28.5991
1.220000 48.794 -30.2216
1.241000 49.132 -32.6011
1.250000 49.278 -33.6012
1.265000 49.522 -35.2422
1.280000 49.767 -36.8516
1.315000 50.342 -40.4917
1.320000 50.424 -40.9993
1.340000 50.752 -43.0016
1.360000 51.080 -44.9616
1.380000 51.406 -46.8839
1.400000 51.730 -48.7727
1.430000 52.211 -51.5525
1.450000 52.528 -53.3747
1.475000 52.920 -55.6086
1.500000 53.311 -57.7587
1.525000 53.702 -59.8131
1.550000 54.094 -61.7802
1.575000 54.486 -63.6709
1.600000 54.876 -65.4966
1.625000 55.265 -67.2679
1.650000 55.652 -68.9951
1.675000 56.036 -70.6875
1.700000 56.417 -72.3538
1.725000 56.794 -74.0018
1.750000 57.166 -75.6385
1.775000 57.533 -77.2702
1.800000 57.895 -78.9017
1.825000 58.250 -80.5341
1.850000 58.600 -82.1536
1.875000 58.946 -83.7391
1.900000 59.286 -85.2837
1.925000 59.623 -86.7882
1.950000 59.956 -88.2552
1.975000 60.284 -89.6881
2.000000 60.609 -91.0904
2.030000 60.993 -92.7384
2.060000 61.371 -94.3546
2.090000 61.744 -95.9460
2.120000 62.111 -97.5190
2.140000 62.352 -98.5607
2.180000 62.828 -100.6336
2.200000 63.062 -101.6649
2.240000 63.522 -103.7003
2.270000 63.859 -105.1929
2.300000 64.191 -106.6550
2.330000 64.516 -108.0882
2.360000 64.836 -109.4947
2.400000 65.255 -111.3336
2.430000 65.563 -112.6895
2.470000 65.966 -114.4729
2.500000 66.263 -115.7966
2.540000 66.653 -117.5494
2.580000 67.035 -119.2912
2.620000 67.408 -121.0146
2.650000 67.681 -122.2903
2.690000 68.039 -123.9667
2.720000 68.301 -125.2052
2.760000 68.644 -126.8322
2.800000 68.980 -128.4333
2.850000 69.390 -130.4027
2.900000 69.791 -132.3437
2.950000 70.181 -134.2645
3.000000 70.561 -136.1682
3.040000 70.856 -137.6750
3.070000 71.073 -138.7934
3.110000 71.356 -140.2673
3.150000 71.634 -141.7204
3.200000 71.973 -143.5071
3.250000 72.303 -145.2625
3.300000 72.626 -146.9917
3.350000 72.940 -148.7046
3.400000 73.246 -150.4038
3.450000 73.542 -152.0838
3.500000 73.830 -153.7391
3.550000 74.111 -155.3659
3.600000 74.385 -156.9621
3.650000 74.654 -158.5287
3.700000 74.915 -160.0736
3.750000 75.170 -161.6051
3.820000 75.514 -163.7233
3.870000 75.753 -165.2112
3.950000 76.123 -167.5379
4.000000 76.348 -168.9554
4.060000 76.612 -170.6240
4.120000 76.867 -172.2695
4.180000 77.115 -173.8932
4.250000 77.396 -175.7537
4.310000 77.631 -177.3138
4.370000 77.861 -178.8391
4.440000 78.122 179.4208
4.500000 78.340 177.9545
4.550000 78.518 176.7491
4.620000 78.761 175.0886
4.680000 78.965 173.6924
4.750000 79.199 172.0966
4.820000 79.429 170.5336
4.870000 79.589 169.4341
4.940000 79.810 167.9161
5.000000 79.996 166.6341
5.080000 80.240 164.9507
5.150000 80.450 163.5012
5.220000 80.657 162.0724
5.300000 80.889 160.4617
5.380000 81.117 158.8709
5.450000 81.314 157.4917
5.520000 81.508 156.1224
5.600000 81.726 154.5696
5.700000 81.993 152.6454
5.800000 82.253 150.7354
5.900000 82.508 148.8325
6.000000 82.755 146.9334
6.080000 82.948 145.4196
6.150000 83.113 144.1004
6.220000 83.274 142.7853
6.300000 83.453 141.2829
6.400000 83.670 139.4050
6.500000 83.877 137.5387
6.600000 84.076 135.6914
6.700000 84.265 133.8535
6.800000 84.444 132.0255
6.900000 84.615 130.2249
7.000000 84.776 128.4580
7.100000 84.927 126.7135
7.200000 85.070 124.9971
7.300000 85.205 123.3252
7.400000 85.332 121.6993
7.500000 85.452 120.1107
7.620000 85.587 118.2618
7.750000 85.726 116.3438
7.880000 85.858 114.5053
8.000000 85.974 112.8737
8.120000 86.088 111.3073
8.250000 86.209 109.6780
8.380000 86.328 108.1048
8.500000 86.439 106.6950
8.620000 86.549 105.3227
8.750000 86.667 103.8654
8.850000 86.758 102.7577
9.000000 86.893 101.1162
9.120000 86.998 99.8170
9.250000 87.109 98.4172
9.380000 87.215 97.0266
9.500000 87.309 95.7574
9.620000 87.397 94.5030
9.750000 87.487 93.1621
9.880000 87.565 91.8512
10.000000 87.626 90.6719
10.150000 87.690 89.2386
10.300000 87.744 87.8587
10.440000 87.789 86.6196
10.600000 87.836 85.2513
10.750000 87.882 84.0097
10.900000 87.928 82.7980
11.060000 87.977 81.5199
11.200000 88.021 80.4082
11.380000 88.074 78.9766
11.500000 88.107 78.0160
11.720000 88.158 76.2557
11.800000 88.172 75.6189
12.060000 88.203 73.5888
12.200000 88.209 72.5461
12.410000 88.213 71.0695
12.500000 88.215 70.4779
12.650000 88.224 69.5483
12.800000 88.239 68.6794
13.150000 88.307 66.8194
13.200000 88.322 66.5573
13.400000 88.390 65.4837
13.600000 88.471 64.3121
13.800000 88.556 62.9967
14.000000 88.630 61.5276
14.300000 88.695 59.0988
14.500000 88.692 57.4316
14.750000 88.631 55.4763
15.000000 88.516 53.8458
15.250000 88.374 52.7207
15.500000 88.250 52.1515
15.750000 88.187 52.0449
16.000000 88.218 52.1481
16.250000 88.344 52.1238
16.500000 88.538 51.7124
16.750000 88.753 50.7808
17.000000 88.944 49.3787
17.250000 89.083 47.6628
17.500000 89.155 45.8397
17.750000 89.169 44.1155
18.000000 89.142 42.6286
18.250000 89.100 41.4436
18.500000 89.070 40.5240
18.750000 89.064 39.7634
19.000000 89.087 39.0336
19.250000 89.127 38.2268
19.500000 89.167 37.3083
19.750000 89.193 36.3023
20.000000 89.197 35.2793
20.299999 89.175 34.1380
20.600000 89.137 33.1723
20.900000 89.103 32.3881
21.200001 89.086 31.7132
21.400000 89.085 31.2737
21.799999 89.095 30.3277
22.000000 89.099 29.8105
22.400000 89.094 28.7353
22.700001 89.077 27.9529
23.000000 89.057 27.2247
23.299999 89.040 26.5450
23.600000 89.027 25.8857
24.000000 89.016 24.9930
24.299999 89.007 24.3068
24.700001 88.992 23.3940
25.000000 88.981 22.7260
25.400000 88.969 21.8472
25.799999 88.962 20.9445
26.200001 88.951 20.0012
26.500000 88.935 19.2911
26.900000 88.901 18.4028
27.200001 88.872 17.8136
27.600000 88.839 17.1342
28.000000 88.820 16.5275
28.500000 88.815 15.7734
29.000000 88.817 14.9748
29.500000 88.820 14.1426
30.000000 88.822 13.2761
30.400000 88.820 12.5483
30.700001 88.812 11.9905
31.100000 88.791 11.2645
31.500000 88.762 10.5997
32.000000 88.728 9.8688
32.500000 88.707 9.1736
33.000000 88.692 8.4167
33.500000 88.667 7.5986
34.000000 88.626 6.8151
34.500000 88.579 6.1453
35.000000 88.542 5.5710
35.500000 88.519 5.0131
36.000000 88.502 4.4198
36.500000 88.483 3.8014
37.000000 88.460 3.1941
37.500000 88.436 2.6179
38.200001 88.403 1.8579
38.700001 88.380 1.3395
39.500000 88.344 0.5510
40.000000 88.324 0.0775
40.599998 88.303 -0.5010
41.200001 88.282 -1.1234
41.799999 88.251 -1.7767
42.500000 88.200 -2.4882
43.099998 88.155 -3.0096
43.700001 88.117 -3.4869
44.400002 88.078 -4.0477
45.000000 88.045 -4.5253
45.500000 88.019 -4.9113
46.200001 87.987 -5.4504
46.799999 87.959 -5.9222
47.500000 87.923 -6.4644
48.200001 87.887 -6.9890
48.700001 87.860 -7.3580
49.400002 87.821 -7.8553
50.000000 87.789 -8.2535
50.799999 87.751 -8.7792
51.500000 87.719 -9.2639
52.200001 87.681 -9.7403
53.000000 87.638 -10.2401
53.799999 87.597 -10.7175
54.500000 87.560 -11.1090
55.200001 87.524 -11.4522
56.000000 87.493 -11.8405
57.000000 87.453 -12.4012
58.000000 87.400 -12.9409
59.000000 87.349 -13.4376
60.000000 87.301 -13.9353
60.799999 87.267 -14.3450
61.500000 87.234 -14.7246
62.200001 87.196 -15.0699
63.000000 87.153 -15.3583
64.000000 87.118 -15.6063
65.000000 87.106 -15.8610
66.000000 87.096 -16.2558
67.000000 87.060 -16.6345
68.000000 87.032 -16.8945
69.000000 87.014 -17.3144
70.000000 86.974 -17.8077
71.000000 86.931 -18.2834
72.000000 86.881 -18.8059
73.000000 86.821 -19.2374
74.000000 86.775 -19.5708
75.000000 86.740 -19.9275
76.199997 86.695 -20.3879
77.500000 86.643 -20.8195
78.800003 86.595 -21.2388
80.000000 86.551 -21.6074
81.199997 86.515 -21.9768
82.500000 86.481 -22.3828
83.800003 86.446 -22.8428
85.000000 86.402 -23.2150
86.199997 86.360 -23.5379
87.500000 86.315 -23.8917
88.500000 86.280 -24.1800
90.000000 86.228 -24.6404
91.199997 86.186 -25.0470
92.500000 86.139 -25.4244
93.800003 86.097 -25.8033
95.000000 86.048 -26.0941
96.199997 86.004 -26.3037
97.500000 85.956 -26.5845
98.800003 85.902 -26.8830
100.000000 85.856 -27.1995
101.500000 85.797 -27.6356
103.000000 85.743 -27.9944
104.400002 85.699 -28.2357
106.000000 85.649 -28.4229
107.500000 85.592 -28.5751
109.000000 85.529 -28.7300
110.599998 85.460 -28.9718
112.000000 85.408 -29.1066
113.800003 85.367 -29.2859
115.000000 85.329 -29.4022
117.199997 85.228 -29.3899
118.000000 85.189 -29.3608
120.599998 85.111 -29.4183
122.000000 85.103 -29.7581
124.099998 85.099 -30.2561
125.000000 85.098 -30.3933
126.500000 85.085 -30.5345
128.000000 85.052 -30.5571
131.500000 84.972 -30.6935
132.000000 84.964 -30.7429
134.000000 84.949 -30.9773
136.000000 84.938 -31.1600
138.000000 84.929 -31.2274
140.000000 84.927 -31.3631
143.000000 84.936 -31.8145
145.000000 84.941 -32.2621
147.500000 84.922 -32.8790
150.000000 84.879 -33.4547
152.500000 84.828 -33.9716
155.000000 84.770 -34.3954
157.500000 84.710 -34.7589
160.000000 84.645 -35.1068
162.500000 84.577 -35.4093
165.000000 84.508 -35.6620
167.500000 84.437 -35.8950
170.000000 84.364 -36.1219
172.500000 84.293 -36.3635
175.000000 84.225 -36.5793
177.500000 84.160 -36.7712
180.000000 84.096 -36.9498
182.500000 84.033 -37.1262
185.000000 83.973 -37.2952
187.500000 83.913 -37.4569
190.000000 83.855 -37.6042
192.500000 83.796 -37.7410
195.000000 83.740 -37.8702
197.500000 83.685 -38.0026
200.000000 83.634 -38.1440
203.000000 83.578 -38.2987
206.000000 83.527 -38.4314
209.000000 83.479 -38.5554
212.000000 83.433 -38.6806
214.000000 83.402 -38.7690
218.000000 83.343 -38.9432
220.000000 83.314 -39.0200
224.000000 83.251 -39.1442
227.000000 83.207 -39.2411
230.000000 83.164 -39.3583
233.000000 83.119 -39.4512
236.000000 83.075 -39.5263
240.000000 83.019 -39.6243
243.000000 82.974 -39.6860
247.000000 82.919 -39.7527
250.000000 82.881 -39.8256
254.000000 82.824 -39.9213
258.000000 82.769 -39.9865
262.000000 82.717 -40.0394
265.000000 82.677 -40.0858
269.000000 82.625 -40.1497
272.000000 82.588 -40.1765
276.000000 82.537 -40.2056
280.000000 82.485 -40.2304
285.000000 82.422 -40.2568
290.000000 82.363 -40.2864
295.000000 82.307 -40.3074
300.000000 82.251 -40.3068
304.000000 82.205 -40.3041
307.000000 82.171 -40.2935
311.000000 82.128 -40.2642
315.000000 82.087 -40.2239
320.000000 82.040 -40.1622
325.000000 81.997 -40.1285
330.000000 81.954 -40.1099
335.000000 81.911 -40.0978
340.000000 81.869 -40.0959
345.000000 81.826 -40.0695
350.000000 81.783 -40.0486
355.000000 81.742 -40.0461
360.000000 81.704 -39.9999
365.000000 81.666 -39.9477
370.000000 81.629 -39.9032
375.000000 81.592 -39.8563
382.000000 81.541 -39.7654
387.000000 81.503 -39.6931
395.000000 81.445 -39.5876
400.000000 81.411 -39.5134
406.000000 81.372 -39.4208
412.000000 81.335 -39.3159
418.000000 81.299 -39.2133
425.000000 81.260 -39.0903
431.000000 81.226 -38.9723
437.000000 81.194 -38.8495
444.000000 81.159 -38.7097
450.000000 81.130 -38.5969
455.000000 81.106 -38.4978
462.000000 81.073 -38.3564
468.000000 81.046 -38.2247
475.000000 81.014 -38.0668
482.000000 80.983 -37.9025
487.000000 80.963 -37.7836
494.000000 80.939 -37.6209
500.000000 80.922 -37.4894
508.000000 80.901 -37.3212
515.000000 80.886 -37.1736
522.000000 80.875 -37.0389
530.000000 80.874 -36.9318
538.000000 80.887 -36.9155
545.000000 80.911 -37.0670
552.000000 80.930 -37.5641
560.000000 80.875 -38.7552
570.000000 80.511 -39.9435
580.000000 80.113 -37.9158
590.000000 80.074 -35.5046
600.000000 80.143 -34.3846
608.000000 80.181 -33.8930
615.000000 80.199 -33.5479
622.000000 80.206 -33.2344
630.000000 80.209 -32.8965
640.000000 80.210 -32.4847
650.000000 80.206 -32.0687
660.000000 80.200 -31.6461
670.000000 80.193 -31.2156
680.000000 80.186 -30.7819
690.000000 80.179 -30.3427
700.000000 80.172 -29.8903
710.000000 80.166 -29.4262
720.000000 80.162 -28.9586
730.000000 80.160 -28.4867
740.000000 80.158 -28.0056
750.000000 80.157 -27.5154
762.000000 80.157 -26.9267
775.000000 80.161 -26.2765
788.000000 80.168 -25.6053
800.000000 80.177 -24.9728
812.000000 80.190 -24.3398
825.000000 80.208 -23.6526
838.000000 80.230 -22.9547
850.000000 80.253 -22.3056
862.000000 80.278 -21.6525
875.000000 80.308 -20.9413
885.000000 80.334 -20.3958
900.000000 80.381 -19.5952
912.000000 80.425 -18.9609
925.000000 80.474 -18.2762
938.000000 80.525 -17.5994
950.000000 80.577 -16.9852
962.000000 80.631 -16.3901
975.000000 80.692 -15.7625
988.000000 80.756 -15.1537
1000.000000 80.818 -14.6130
1015.000000 80.900 -13.9660
1030.000000 80.985 -13.3502
1044.000000 81.065 -12.7972
1060.000000 81.157 -12.1981
1075.000000 81.244 -11.6708
1090.000000 81.331 -11.1828
1106.000000 81.424 -10.6890
1120.000000 81.504 -10.2894
1138.000000 81.605 -9.8081
1150.000000 81.671 -9.5099
1172.000000 81.785 -8.9937
1180.000000 81.826 -8.8146
1206.000000 81.950 -8.2535
1220.000000 82.014 -7.9631
1241.000000 82.105 -7.5491
1250.000000 82.143 -7.3736
1265.000000 82.206 -7.0863
1280.000000 82.266 -6.7944
1315.000000 82.398 -6.1354
1320.000000 82.417 -6.0608
1340.000000 82.487 -5.9639
1360.000000 82.542 -6.1973
1380.000000 82.599 -6.4385
1400.000000 82.654 -6.5991
1430.000000 82.729 -6.8074
1450.000000 82.776 -6.9281
1475.000000 82.833 -7.0645
1500.000000 82.888 -7.1891
1525.000000 82.939 -7.2947
1550.000000 82.988 -7.3810
1575.000000 83.034 -7.4480
1600.000000 83.076 -7.4993
1625.000000 83.114 -7.5315
1650.000000 83.150 -7.5414
1675.000000 83.184 -7.5244
1700.000000 83.215 -7.4779
1725.000000 83.247 -7.3999
1750.000000 83.280 -7.2806
1775.000000 83.314 -7.1263
1800.000000 83.349 -6.9409
1825.000000 83.385 -6.7218
1850.000000 83.422 -6.4604
1875.000000 83.458 -6.1434
1900.000000 83.494 -5.7115
1925.000000 83.540 -5.1107
1950.000000 83.614 -4.3389
1975.000000 83.734 -3.4863
2000.000000 83.907 -2.7477
2030.000000 84.160 -2.2676
2060.000000 84.414 -2.2841
2090.000000 84.633 -2.6030
2120.000000 84.817 -3.0243
2140.000000 84.925 -3.3109
2180.000000 85.122 -3.8562
2200.000000 85.215 -4.1176
2240.000000 85.394 -4.6436
2270.000000 85.518 -5.0468
2300.000000 85.632 -5.4524
2330.000000 85.741 -5.8488
2360.000000 85.848 -6.2294
2400.000000 85.993 -6.7129
2430.000000 86.104 -7.0657
2470.000000 86.253 -7.5354
2500.000000 86.369 -7.8882
2540.000000 86.530 -8.3826
2580.000000 86.696 -8.9265
2620.000000 86.862 -9.5405
2650.000000 86.985 -10.0403
2690.000000 87.148 -10.7642
2720.000000 87.268 -11.3503
2760.000000 87.426 -12.1997
2800.000000 87.580 -13.1331
2850.000000 87.767 -14.5281
2900.000000 87.881 -16.5188
2950.000000 87.691 -17.8621
3000.000000 87.690 -14.9469
3040.000000 88.127 -14.4878
3070.000000 88.417 -15.6257
3110.000000 88.679 -17.5799
3150.000000 88.854 -19.4799
3200.000000 89.008 -21.7465
3250.000000 89.118 -23.9828
3300.000000 89.193 -26.2308
3350.000000 89.233 -28.4808
3400.000000 89.236 -30.7229
3450.000000 89.207 -32.9360
3500.000000 89.148 -35.0976
3550.000000 89.060 -37.1915
3600.000000 88.943 -39.1960
3650.000000 88.801 -41.0972
3700.000000 88.633 -42.8702
3750.000000 88.443 -44.5091
3820.000000 88.146 -46.5525
3870.000000 87.917 -47.8356
3950.000000 87.529 -49.5804
4000.000000 87.281 -50.4795
4060.000000 86.983 -51.3685
4120.000000 86.682 -52.0494
4180.000000 86.381 -52.5375
4250.000000 86.033 -52.8811
4310.000000 85.740 -52.9979
4370.000000 85.450 -52.9554
4440.000000 85.117 -52.7091
4500.000000 84.837 -52.3473
4550.000000 84.610 -51.9402
4620.000000 84.304 -51.2289
4680.000000 84.054 -50.5093
4750.000000 83.778 -49.5488
4820.000000 83.516 -48.4597
4870.000000 83.339 -47.6112
4940.000000 83.100 -46.3309
5000.000000 82.900 -45.1543
5080.000000 82.633 -43.4628
5150.000000 82.407 -41.8777
5220.000000 82.195 -40.2031
5300.000000 81.973 -38.2044
5380.000000 81.774 -36.1472
5450.000000 81.615 -34.3039
5520.000000 81.473 -32.4188
5600.000000 81.329 -30.2056
5700.000000 81.181 -27.3625
5800.000000 81.069 -24.4401
5900.000000 80.993 -21.4535
6000.000000 80.954 -18.4390
6080.000000 80.950 -16.0232
6150.000000 80.969 -13.9006
6220.000000 81.010 -11.7728
6300.000000 81.091 -9.3552
6400.000000 81.252 -6.3676
6500.000000 81.469 -3.4296
6600.000000 81.735 -0.5732
6700.000000 82.051 2.1607
6800.000000 82.421 4.7455
6900.000000 82.847 7.1354
7000.000000 83.333 9.2593
7100.000000 83.880 11.0593
7200.000000 84.492 12.4224
7300.000000 85.170 13.1790
7400.000000 85.906 13.1349
7500.000000 86.681 12.0580
7620.000000 87.608 9.1025
7750.000000 88.494 3.6307
7880.000000 89.087 -4.0110
8000.000000 89.228 -12.2462
8120.000000 88.906 -20.4883
8250.000000 88.110 -27.9153
8380.000000 87.110 -33.0822
8500.000000 86.089 -36.7488
8620.000000 84.936 -38.7389
8750.000000 83.697 -38.9786
8850.000000 82.799 -38.1328
9000.000000 81.580 -35.5961
9120.000000 80.728 -32.9031
9250.000000 79.899 -29.7858
9380.000000 79.083 -26.1115
9500.000000 78.448 -21.7805
9620.000000 77.960 -17.5360
9750.000000 77.512 -13.1953
9880.000000 77.118 -8.9089
10000.000000 76.814 -4.9490
10150.000000 76.525 -0.0100
10300.000000 76.321 4.8414
10440.000000 76.195 9.2411
10600.000000 76.120 14.0703
10750.000000 76.108 18.3334
10900.000000 76.140 22.2487
11060.000000 76.212 25.9519
11200.000000 76.298 28.7644
11380.000000 76.415 31.7952
11500.000000 76.481 33.4655
11720.000000 76.543 35.8602
11800.000000 76.539 36.5614
12060.000000 76.394 38.6162
12200.000000 76.226 39.8171
12410.000000 75.883 42.2070
12500.000000 75.726 43.5437
12650.000000 75.495 46.0968
12800.000000 75.320 48.6836
13150.000000 74.915 53.8475
13200.000000 74.843 54.6278
13400.000000 74.553 58.2317
13600.000000 74.350 62.4543
13800.000000 74.261 66.6947
14000.000000 74.260 70.9245
14300.000000 74.748 77.4632
14500.000000 75.369 78.2402
14750.000000 75.818 75.7537
15000.000000 75.938 71.4666
15250.000000 75.625 65.6694
15500.000000 74.748 59.9811
15750.000000 73.426 56.2500
16000.000000 71.899 54.4099
16250.000000 70.195 54.6332
16500.000000 68.339 58.4909
16750.000000 66.624 67.8874
17000.000000 65.672 80.6515
17250.000000 65.363 90.7701
17500.000000 65.112 98.8786
17750.000000 64.909 107.4048
18000.000000 64.925 116.0703
18250.000000 65.137 123.9604
18500.000000 65.475 131.1769
18750.000000 66.014 138.3463
19000.000000 66.952 145.0478
19250.000000 68.375 149.2771
19500.000000 70.049 148.7612
19750.000000 71.513 143.2560
20000.000000 72.297 136.5163
