* Measurement data measured by REW V5.31.3
* Source: Headset (Odo By VECLAN.COM), MICROPHONE (Master Volume), R, volume: 0.250
* Format: 1M Log Swept Sine, 1 sweep at -12.0 dBFS with no timing reference
* Dated: 02 8, 25 9:37:46 AM
* REW Settings:
*  C-weighting compensation: Off
*  Target level: 75.0 dB
* Note: ; 
* Measurement: d-fi 5/4 R
* Smoothing: 1/24 octave
* Frequency Step: 1/48 octave
* Start Frequency: 1.000 Hz
*
* Freq(Hz) SPL(dB) Phase(degrees)
1.000000 45.792 0.9410
1.015000 45.954 -1.4287
1.030000 46.120 -3.7798
1.044000 46.279 -5.9621
1.060000 46.466 -8.4478
1.075000 46.647 -10.7761
1.090000 46.833 -13.1083
1.106000 47.038 -15.6057
1.120000 47.223 -17.7986
1.138000 47.471 -20.6170
1.150000 47.642 -22.4877
1.172000 47.966 -25.8826
1.180000 48.086 -27.1019
1.206000 48.488 -30.9932
1.220000 48.710 -33.0360
1.241000 49.049 -36.0227
1.250000 49.196 -37.2726
1.265000 49.443 -39.3141
1.280000 49.693 -41.3029
1.315000 50.280 -45.7377
1.320000 50.364 -46.3481
1.340000 50.701 -48.7336
1.360000 51.036 -51.0325
1.380000 51.369 -53.2496
1.400000 51.699 -55.3903
1.430000 52.184 -58.4708
1.450000 52.499 -60.4459
1.475000 52.884 -62.8323
1.500000 53.267 -65.1241
1.525000 53.650 -67.3215
1.550000 54.032 -69.4305
1.575000 54.413 -71.4583
1.600000 54.792 -73.4124
1.625000 55.170 -75.3000
1.650000 55.544 -77.1286
1.675000 55.916 -78.9050
1.700000 56.283 -80.6357
1.725000 56.646 -82.3270
1.750000 57.003 -83.9844
1.775000 57.355 -85.6132
1.800000 57.700 -87.2180
1.825000 58.039 -88.8015
1.850000 58.371 -90.3598
1.875000 58.698 -91.8848
1.900000 59.019 -93.3731
1.925000 59.335 -94.8247
1.950000 59.646 -96.2406
1.975000 59.952 -97.6224
2.000000 60.254 -98.9717
2.030000 60.611 -100.5510
2.060000 60.961 -102.0903
2.090000 61.306 -103.5937
2.120000 61.645 -105.0651
2.140000 61.869 -106.0304
2.180000 62.310 -107.9278
2.200000 62.527 -108.8609
2.240000 62.954 -110.6905
2.270000 63.266 -112.0275
2.300000 63.573 -113.3350
2.330000 63.874 -114.6145
2.360000 64.170 -115.8680
2.400000 64.557 -117.5023
2.430000 64.841 -118.7032
2.470000 65.214 -120.2755
2.500000 65.490 -121.4360
2.540000 65.852 -122.9623
2.580000 66.208 -124.4660
2.620000 66.556 -125.9423
2.650000 66.812 -127.0298
2.690000 67.147 -128.4545
2.720000 67.393 -129.5050
2.760000 67.716 -130.8837
2.800000 68.032 -132.2397
2.850000 68.419 -133.9075
2.900000 68.799 -135.5504
2.950000 69.171 -137.1722
3.000000 69.534 -138.7699
3.040000 69.818 -140.0287
3.070000 70.027 -140.9615
3.110000 70.300 -142.1902
3.150000 70.569 -143.4028
3.200000 70.899 -144.8978
3.250000 71.221 -146.3725
3.300000 71.538 -147.8304
3.350000 71.847 -149.2740
3.400000 72.148 -150.7022
3.450000 72.443 -152.1128
3.500000 72.731 -153.5046
3.550000 73.012 -154.8772
3.600000 73.288 -156.2307
3.650000 73.558 -157.5668
3.700000 73.823 -158.8891
3.750000 74.081 -160.2001
3.820000 74.432 -162.0140
3.870000 74.677 -163.2913
3.950000 75.058 -165.2992
4.000000 75.291 -166.5311
4.060000 75.564 -167.9888
4.120000 75.830 -169.4297
4.180000 76.089 -170.8540
4.250000 76.384 -172.4917
4.310000 76.631 -173.8726
4.370000 76.873 -175.2312
4.440000 77.150 -176.7903
4.500000 77.382 -178.1081
4.550000 77.571 -179.1941
4.620000 77.831 179.3033
4.680000 78.050 178.0319
4.750000 78.301 176.5673
4.820000 78.548 175.1226
4.870000 78.722 174.1024
4.940000 78.961 172.6879
5.000000 79.163 171.4855
5.080000 79.428 169.8927
5.150000 79.656 168.5070
5.220000 79.881 167.1304
5.300000 80.134 165.5678
5.380000 80.383 164.0112
5.450000 80.596 162.6491
5.520000 80.807 161.2840
5.600000 81.043 159.7218
5.700000 81.332 157.7686
5.800000 81.612 155.8131
5.900000 81.883 153.8474
6.000000 82.145 151.8670
6.080000 82.348 150.2787
6.150000 82.520 148.8913
6.220000 82.687 147.5060
6.300000 82.870 145.9189
6.400000 83.090 143.9270
6.500000 83.298 141.9463
6.600000 83.494 139.9915
6.700000 83.678 138.0502
6.800000 83.850 136.1212
6.900000 84.011 134.2295
7.000000 84.162 132.3864
7.100000 84.301 130.5772
7.200000 84.430 128.8069
7.300000 84.551 127.0953
7.400000 84.665 125.4463
7.500000 84.771 123.8490
7.620000 84.891 122.0052
7.750000 85.016 120.1113
7.880000 85.135 118.3169
8.000000 85.242 116.7361
8.120000 85.351 115.2250
8.250000 85.469 113.6621
8.380000 85.588 112.1539
8.500000 85.701 110.7974
8.620000 85.817 109.4727
8.750000 85.943 108.0567
8.850000 86.041 106.9711
9.000000 86.188 105.3481
9.120000 86.304 104.0507
9.250000 86.427 102.6387
9.380000 86.545 101.2221
9.500000 86.649 99.9174
9.620000 86.749 98.6158
9.750000 86.848 97.2117
9.880000 86.937 95.8266
10.000000 87.005 94.5686
10.150000 87.075 93.0259
10.300000 87.133 91.5308
10.440000 87.178 90.1799
10.600000 87.222 88.6904
10.750000 87.259 87.3506
10.900000 87.293 86.0607
11.060000 87.329 84.7360
11.200000 87.359 83.6168
11.380000 87.397 82.2224
11.500000 87.422 81.3168
11.720000 87.469 79.6963
11.800000 87.486 79.1169
12.060000 87.541 77.2621
12.200000 87.570 76.2762
12.410000 87.615 74.8097
12.500000 87.637 74.1846
12.650000 87.676 73.1465
12.800000 87.715 72.1142
13.150000 87.798 69.7348
13.200000 87.808 69.4004
13.400000 87.844 68.0818
13.600000 87.873 66.8083
13.800000 87.896 65.5940
14.000000 87.915 64.4549
14.300000 87.943 62.9015
14.500000 87.969 61.9662
14.750000 88.015 60.8761
15.000000 88.082 59.8220
15.250000 88.168 58.7313
15.500000 88.266 57.5446
15.750000 88.366 56.2320
16.000000 88.456 54.7981
16.250000 88.527 53.2918
16.500000 88.572 51.7800
16.750000 88.591 50.3408
17.000000 88.591 49.0374
17.250000 88.582 47.9005
17.500000 88.575 46.9264
17.750000 88.579 46.0724
18.000000 88.597 45.2798
18.250000 88.626 44.4905
18.500000 88.660 43.6675
18.750000 88.692 42.8062
19.000000 88.714 41.9261
19.250000 88.725 41.0655
19.500000 88.727 40.2583
19.750000 88.724 39.5244
20.000000 88.723 38.8621
20.299999 88.731 38.1281
20.600000 88.750 37.4045
20.900000 88.778 36.6391
21.200001 88.805 35.8073
21.400000 88.820 35.2193
21.799999 88.837 34.0002
22.000000 88.839 33.3887
22.400000 88.833 32.1971
22.700001 88.824 31.3425
23.000000 88.813 30.5213
23.299999 88.804 29.7295
23.600000 88.796 28.9626
24.000000 88.791 27.9658
24.299999 88.793 27.2216
24.700001 88.800 26.2057
25.000000 88.805 25.4175
25.400000 88.804 24.3530
25.799999 88.791 23.3342
26.200001 88.773 22.4258
26.500000 88.763 21.8218
26.900000 88.766 21.0639
27.200001 88.777 20.4725
27.600000 88.794 19.5947
28.000000 88.791 18.6403
28.500000 88.746 17.5344
29.000000 88.675 16.7811
29.500000 88.635 16.4076
30.000000 88.663 16.0981
30.400000 88.722 15.6350
30.700001 88.768 15.1026
31.100000 88.808 14.1984
31.500000 88.811 13.2107
32.000000 88.775 12.0831
32.500000 88.724 11.1791
33.000000 88.685 10.4277
33.500000 88.659 9.7163
34.000000 88.637 9.0207
34.500000 88.619 8.3680
35.000000 88.613 7.7389
35.500000 88.616 7.0661
36.000000 88.617 6.3242
36.500000 88.603 5.5729
37.000000 88.580 4.8888
37.500000 88.557 4.2850
38.200001 88.532 3.4908
38.700001 88.514 2.9303
39.500000 88.484 2.0796
40.000000 88.470 1.5552
40.599998 88.455 0.8806
41.200001 88.431 0.1790
41.799999 88.400 -0.4794
42.500000 88.367 -1.1805
43.099998 88.345 -1.7758
43.700001 88.323 -2.3729
44.400002 88.297 -3.0374
45.000000 88.280 -3.5900
45.500000 88.267 -4.0634
46.200001 88.247 -4.7457
46.799999 88.223 -5.3166
47.500000 88.193 -5.9402
48.200001 88.163 -6.5284
48.700001 88.143 -6.9399
49.400002 88.117 -7.5165
50.000000 88.094 -8.0118
50.799999 88.062 -8.6616
51.500000 88.034 -9.2136
52.200001 88.007 -9.7488
53.000000 87.978 -10.3427
53.799999 87.950 -10.9297
54.500000 87.924 -11.4373
55.200001 87.896 -11.9184
56.000000 87.867 -12.4296
57.000000 87.838 -13.0837
58.000000 87.803 -13.8035
59.000000 87.758 -14.4863
60.000000 87.714 -15.1021
60.799999 87.685 -15.5795
61.500000 87.661 -15.9961
62.200001 87.639 -16.4230
63.000000 87.610 -16.9117
64.000000 87.568 -17.4561
65.000000 87.532 -17.9293
66.000000 87.502 -18.4349
67.000000 87.463 -18.9376
68.000000 87.431 -19.3721
69.000000 87.410 -19.8769
70.000000 87.386 -20.4580
71.000000 87.353 -21.0768
72.000000 87.304 -21.6252
73.000000 87.266 -21.9979
74.000000 87.254 -22.4159
75.000000 87.238 -22.9847
76.199997 87.194 -23.7006
77.500000 87.134 -24.3510
78.800003 87.085 -24.9363
80.000000 87.046 -25.4902
81.199997 87.005 -26.0270
82.500000 86.966 -26.5463
83.800003 86.923 -27.0811
85.000000 86.880 -27.5060
86.199997 86.840 -27.9760
87.500000 86.785 -28.4791
88.500000 86.744 -28.8320
90.000000 86.696 -29.3203
91.199997 86.672 -29.7797
92.500000 86.636 -30.3766
93.800003 86.585 -30.9133
95.000000 86.537 -31.3060
96.199997 86.495 -31.6739
97.500000 86.450 -32.0581
98.800003 86.406 -32.4126
100.000000 86.367 -32.7332
101.500000 86.319 -33.1504
103.000000 86.268 -33.6069
104.400002 86.216 -34.0475
106.000000 86.158 -34.5630
107.500000 86.105 -35.0433
109.000000 86.051 -35.5089
110.599998 85.985 -35.9475
112.000000 85.925 -36.2286
113.800003 85.855 -36.5287
115.000000 85.810 -36.7603
117.199997 85.716 -37.1333
118.000000 85.686 -37.2106
120.599998 85.609 -37.4852
122.000000 85.570 -37.5227
124.099998 85.534 -37.4135
125.000000 85.532 -37.3450
126.500000 85.545 -37.3185
128.000000 85.570 -37.3926
131.500000 85.659 -38.2871
132.000000 85.665 -38.4738
134.000000 85.672 -39.2357
136.000000 85.661 -39.9565
138.000000 85.649 -40.7487
140.000000 85.617 -41.5991
143.000000 85.554 -42.6241
145.000000 85.506 -43.1961
147.500000 85.444 -43.8561
150.000000 85.381 -44.5078
152.500000 85.315 -45.0772
155.000000 85.240 -45.5672
157.500000 85.165 -46.0309
160.000000 85.089 -46.4941
162.500000 85.008 -46.9024
165.000000 84.920 -47.2385
167.500000 84.832 -47.5435
170.000000 84.745 -47.8090
172.500000 84.679 -47.9689
175.000000 84.640 -48.0932
177.500000 84.614 -48.1523
180.000000 84.593 -48.1998
182.500000 84.579 -48.4036
185.000000 84.578 -48.8831
187.500000 84.570 -49.5461
190.000000 84.546 -50.1671
192.500000 84.508 -50.7589
195.000000 84.461 -51.3437
197.500000 84.409 -51.8933
200.000000 84.355 -52.3790
203.000000 84.290 -52.9288
206.000000 84.231 -53.4485
209.000000 84.180 -53.9083
212.000000 84.130 -54.3031
214.000000 84.096 -54.5631
218.000000 84.027 -55.0929
220.000000 83.995 -55.3596
224.000000 83.933 -55.8837
227.000000 83.887 -56.2702
230.000000 83.842 -56.6425
233.000000 83.797 -56.9926
236.000000 83.752 -57.3273
240.000000 83.691 -57.7790
243.000000 83.645 -58.1019
247.000000 83.587 -58.5078
250.000000 83.543 -58.8221
254.000000 83.485 -59.2529
258.000000 83.427 -59.6724
262.000000 83.367 -60.0616
265.000000 83.320 -60.3391
269.000000 83.260 -60.7052
272.000000 83.216 -60.9842
276.000000 83.162 -61.3546
280.000000 83.111 -61.7110
285.000000 83.049 -62.1458
290.000000 82.989 -62.5896
295.000000 82.927 -63.0170
300.000000 82.868 -63.4380
304.000000 82.821 -63.7643
307.000000 82.788 -64.0116
311.000000 82.744 -64.3456
315.000000 82.703 -64.6663
320.000000 82.653 -65.0515
325.000000 82.602 -65.4291
330.000000 82.553 -65.8058
335.000000 82.506 -66.1711
340.000000 82.460 -66.5385
345.000000 82.417 -66.9113
350.000000 82.373 -67.2739
355.000000 82.329 -67.6218
360.000000 82.287 -67.9588
365.000000 82.247 -68.2999
370.000000 82.207 -68.6389
375.000000 82.167 -68.9703
382.000000 82.114 -69.4279
387.000000 82.076 -69.7496
395.000000 82.016 -70.2443
400.000000 81.979 -70.5505
406.000000 81.937 -70.9084
412.000000 81.897 -71.2651
418.000000 81.861 -71.6263
425.000000 81.821 -72.0469
431.000000 81.786 -72.3949
437.000000 81.750 -72.7299
444.000000 81.708 -73.1172
450.000000 81.674 -73.4593
455.000000 81.646 -73.7339
462.000000 81.606 -74.1050
468.000000 81.572 -74.4180
475.000000 81.536 -74.7855
482.000000 81.503 -75.1545
487.000000 81.481 -75.4171
494.000000 81.450 -75.7740
500.000000 81.424 -76.0729
508.000000 81.390 -76.4585
515.000000 81.363 -76.8062
522.000000 81.336 -77.1732
530.000000 81.308 -77.5601
538.000000 81.281 -77.9285
545.000000 81.256 -78.2454
552.000000 81.232 -78.5798
560.000000 81.211 -78.9602
570.000000 81.189 -79.4539
580.000000 81.168 -80.0096
590.000000 81.137 -80.6581
600.000000 81.076 -81.2946
608.000000 81.017 -81.5790
615.000000 80.986 -81.6806
622.000000 80.976 -81.7904
630.000000 80.979 -81.9990
640.000000 80.990 -82.3759
650.000000 81.002 -82.8978
660.000000 81.004 -83.6586
670.000000 80.950 -84.7432
680.000000 80.790 -85.6161
690.000000 80.622 -85.5107
700.000000 80.562 -85.0591
710.000000 80.573 -84.8942
720.000000 80.597 -84.9885
730.000000 80.616 -85.1652
740.000000 80.628 -85.3599
750.000000 80.635 -85.5726
762.000000 80.644 -85.8308
775.000000 80.658 -86.1104
788.000000 80.675 -86.3884
800.000000 80.690 -86.6411
812.000000 80.703 -86.8848
825.000000 80.719 -87.1421
838.000000 80.740 -87.3911
850.000000 80.764 -87.6218
862.000000 80.791 -87.8466
875.000000 80.824 -88.0885
885.000000 80.851 -88.2795
900.000000 80.896 -88.5679
912.000000 80.936 -88.8049
925.000000 80.986 -89.0809
938.000000 81.039 -89.3693
950.000000 81.091 -89.6368
962.000000 81.149 -89.9271
975.000000 81.217 -90.2732
988.000000 81.281 -90.6202
1000.000000 81.339 -90.9482
1015.000000 81.415 -91.4009
1030.000000 81.498 -91.8895
1044.000000 81.577 -92.3726
1060.000000 81.669 -92.9601
1075.000000 81.757 -93.5350
1090.000000 81.844 -94.1453
1106.000000 81.937 -94.8315
1120.000000 82.017 -95.4611
1138.000000 82.117 -96.3036
1150.000000 82.183 -96.8882
1172.000000 82.303 -97.9883
1180.000000 82.345 -98.3972
1206.000000 82.475 -99.7527
1220.000000 82.541 -100.4934
1241.000000 82.634 -101.6174
1250.000000 82.672 -102.0996
1265.000000 82.732 -102.9033
1280.000000 82.790 -103.7126
1315.000000 82.922 -105.5916
1320.000000 82.940 -105.8580
1340.000000 83.007 -106.9169
1360.000000 83.069 -107.9643
1380.000000 83.127 -108.9999
1400.000000 83.179 -110.0161
1430.000000 83.252 -111.5021
1450.000000 83.297 -112.4642
1475.000000 83.350 -113.6364
1500.000000 83.399 -114.7700
1525.000000 83.446 -115.8635
1550.000000 83.488 -116.9030
1575.000000 83.527 -117.8866
1600.000000 83.565 -118.8002
1625.000000 83.604 -119.6168
1650.000000 83.651 -120.3141
1675.000000 83.719 -120.9368
1700.000000 83.811 -121.5670
1725.000000 83.923 -122.3246
1750.000000 84.038 -123.2715
1775.000000 84.138 -124.3500
1800.000000 84.213 -125.4615
1825.000000 84.269 -126.5248
1850.000000 84.311 -127.4885
1875.000000 84.348 -128.3224
1900.000000 84.385 -129.0040
1925.000000 84.433 -129.5240
1950.000000 84.505 -129.9173
1975.000000 84.610 -130.2671
2000.000000 84.750 -130.6965
2030.000000 84.945 -131.4618
2060.000000 85.143 -132.5450
2090.000000 85.318 -133.8284
2120.000000 85.467 -135.1663
2140.000000 85.556 -136.0406
2180.000000 85.722 -137.6964
2200.000000 85.805 -138.4845
2240.000000 85.979 -140.0436
2270.000000 86.113 -141.2507
2300.000000 86.243 -142.5075
2330.000000 86.365 -143.7942
2360.000000 86.478 -145.0795
2400.000000 86.619 -146.7555
2430.000000 86.723 -147.9769
2470.000000 86.865 -149.5879
2500.000000 86.975 -150.7999
2540.000000 87.124 -152.4174
2580.000000 87.273 -154.0305
2620.000000 87.420 -155.6305
2650.000000 87.528 -156.8153
2690.000000 87.670 -158.3689
2720.000000 87.779 -159.5135
2760.000000 87.938 -161.0193
2800.000000 88.115 -162.5526
2850.000000 88.364 -164.6680
2900.000000 88.614 -167.1147
2950.000000 88.839 -169.8577
3000.000000 89.027 -172.7806
3040.000000 89.151 -175.1911
3070.000000 89.227 -177.0305
3110.000000 89.303 -179.5192
3150.000000 89.345 177.9464
3200.000000 89.347 174.7396
3250.000000 89.279 171.5833
3300.000000 89.124 168.8370
3350.000000 88.954 167.1318
3400.000000 88.930 166.1757
3450.000000 89.045 164.5433
3500.000000 89.129 161.8438
3550.000000 89.115 158.7573
3600.000000 89.025 155.7686
3650.000000 88.886 152.9907
3700.000000 88.714 150.4244
3750.000000 88.518 148.0619
3820.000000 88.214 145.0970
3870.000000 87.981 143.2193
3950.000000 87.593 140.6052
4000.000000 87.340 139.1992
4060.000000 87.028 137.7318
4120.000000 86.717 136.4987
4180.000000 86.413 135.4840
4250.000000 86.061 134.5559
4310.000000 85.758 133.9796
4370.000000 85.459 133.5937
4440.000000 85.119 133.3536
4500.000000 84.838 133.3182
4550.000000 84.611 133.4075
4620.000000 84.305 133.6970
4680.000000 84.055 134.0888
4750.000000 83.776 134.7053
4820.000000 83.510 135.4738
4870.000000 83.328 136.1119
4940.000000 83.082 137.1404
5000.000000 82.876 138.1376
5080.000000 82.602 139.6080
5150.000000 82.375 141.0212
5220.000000 82.166 142.5476
5300.000000 81.953 144.4111
5380.000000 81.762 146.3828
5450.000000 81.615 148.1977
5520.000000 81.488 150.0898
5600.000000 81.372 152.3430
5700.000000 81.265 155.2839
5800.000000 81.200 158.3379
5900.000000 81.181 161.4507
6000.000000 81.206 164.5557
6080.000000 81.258 167.0059
6150.000000 81.327 169.1229
6220.000000 81.419 171.2177
6300.000000 81.557 173.5725
6400.000000 81.779 176.4364
6500.000000 82.044 179.2119
6600.000000 82.349 -178.1023
6700.000000 82.687 -175.5176
6800.000000 83.058 -173.0598
6900.000000 83.467 -170.7540
7000.000000 83.918 -168.6344
7100.000000 84.413 -166.7653
7200.000000 84.956 -165.2239
7300.000000 85.548 -164.1212
7400.000000 86.183 -163.6033
7500.000000 86.842 -163.8223
7620.000000 87.622 -165.2417
7750.000000 88.386 -168.3271
7880.000000 88.965 -172.9301
8000.000000 89.242 -178.1415
8120.000000 89.230 176.3113
8250.000000 88.929 170.4088
8380.000000 88.330 164.9758
8500.000000 87.517 161.0812
8620.000000 86.534 158.8788
8750.000000 85.424 158.5411
8850.000000 84.613 159.3470
9000.000000 83.478 161.6429
9120.000000 82.627 164.2433
9250.000000 81.758 167.7571
9380.000000 80.945 171.9298
9500.000000 80.249 176.2969
9620.000000 79.628 -178.8854
9750.000000 79.054 -173.4387
9880.000000 78.560 -167.9042
10000.000000 78.169 -162.7126
10150.000000 77.776 -156.1539
10300.000000 77.473 -149.5852
10440.000000 77.257 -143.4862
10600.000000 77.074 -136.6245
10750.000000 76.957 -130.3894
10900.000000 76.881 -124.4062
11060.000000 76.833 -118.3102
11200.000000 76.808 -113.2223
11380.000000 76.778 -107.0304
11500.000000 76.751 -103.0991
11720.000000 76.672 -96.2590
11800.000000 76.627 -93.8804
12060.000000 76.405 -86.3333
12200.000000 76.229 -82.2562
12410.000000 75.888 -75.9672
12500.000000 75.713 -73.1530
12650.000000 75.392 -68.2479
12800.000000 75.044 -63.0266
13150.000000 74.209 -49.4482
13200.000000 74.094 -47.3547
13400.000000 73.658 -38.6415
13600.000000 73.279 -29.4751
13800.000000 72.972 -19.9622
14000.000000 72.742 -10.2263
14300.000000 72.490 4.6330
14500.000000 72.455 16.3176
14750.000000 73.149 30.8264
15000.000000 74.058 39.3967
15250.000000 74.837 44.8244
15500.000000 75.377 47.0451
15750.000000 75.388 47.1820
16000.000000 74.932 48.1761
16250.000000 74.358 49.9924
16500.000000 73.509 52.0346
16750.000000 72.325 55.9336
17000.000000 70.976 62.3495
17250.000000 69.615 70.9528
17500.000000 68.320 81.2374
17750.000000 67.129 92.8047
18000.000000 66.055 105.3696
18250.000000 65.116 118.7719
18500.000000 64.361 132.7123
18750.000000 63.825 146.4262
19000.000000 63.460 159.1028
19250.000000 63.162 170.2454
19500.000000 62.822 179.9067
19750.000000 62.422 -171.5598
20000.000000 62.135 -165.2654
