* Measurement data measured by REW V5.30.9
* Source: Headset (Odo By VECLAN.COM), MICROPHONE (Master Volume), L, volume: 0.250
* Format: 512k Log Swept Sine, 1 sweep at -12.0 dBFS with no timing reference
* Dated: 02 1, 25 2:43:22 PM
* REW Settings:
*  C-weighting compensation: Off
*  Target level: 75.0 dB
* Note: ; 
* Measurement: edx px a01 L
* Smoothing: 1/24 octave
* Frequency Step: 1/48 octave
* Start Frequency: 1.000 Hz
*
* Freq(Hz)	SPL(dB)	Phase(degrees)
1.000000	50.820	-38.3070
1.015000	51.003	-41.0276
1.030000	51.200	-43.7896
1.044000	51.395	-46.3832
1.060000	51.630	-49.3436
1.075000	51.861	-52.0973
1.090000	52.102	-54.8148
1.106000	52.368	-57.6598
1.120000	52.608	-60.0950
1.138000	52.926	-63.1428
1.150000	53.142	-65.1191
1.172000	53.548	-68.6236
1.180000	53.698	-69.8596
1.206000	54.191	-73.7384
1.220000	54.460	-75.7428
1.241000	54.865	-78.6463
1.250000	55.038	-79.8551
1.265000	55.328	-81.8259
1.280000	55.615	-83.7455
1.315000	56.278	-88.0508
1.320000	56.371	-88.6483
1.340000	56.739	-90.9969
1.360000	57.104	-93.2666
1.380000	57.472	-95.4329
1.400000	57.845	-97.4933
1.430000	58.411	-100.4050
1.450000	58.791	-102.2421
1.475000	59.269	-104.4398
1.500000	59.746	-106.5455
1.525000	60.222	-108.5770
1.550000	60.695	-110.5501
1.575000	61.162	-112.4790
1.600000	61.621	-114.3762
1.625000	62.072	-116.2526
1.650000	62.511	-118.1170
1.675000	62.938	-119.9736
1.700000	63.353	-121.8077
1.725000	63.760	-123.5910
1.750000	64.158	-125.3157
1.775000	64.550	-126.9842
1.800000	64.934	-128.6015
1.825000	65.312	-130.1731
1.850000	65.683	-131.7050
1.875000	66.048	-133.2032
1.900000	66.407	-134.6738
1.925000	66.760	-136.1228
1.950000	67.108	-137.5557
1.975000	67.450	-138.9779
2.000000	67.787	-140.3935
2.030000	68.185	-142.0817
2.060000	68.573	-143.7421
2.090000	68.952	-145.3647
2.120000	69.322	-146.9500
2.140000	69.564	-147.9876
2.180000	70.038	-150.0218
2.200000	70.270	-151.0211
2.240000	70.724	-152.9913
2.270000	71.058	-154.4500
2.300000	71.386	-155.8982
2.330000	71.709	-157.3406
2.360000	72.027	-158.7791
2.400000	72.441	-160.6823
2.430000	72.743	-162.0916
2.470000	73.137	-163.9433
2.500000	73.425	-165.3118
2.540000	73.800	-167.1112
2.580000	74.166	-168.8856
2.620000	74.523	-170.6401
2.650000	74.787	-171.9465
2.690000	75.132	-173.6805
2.720000	75.385	-174.9764
2.760000	75.715	-176.6949
2.800000	76.037	-178.3983
2.850000	76.427	179.4982
2.900000	76.805	177.4250
2.950000	77.172	175.3803
3.000000	77.531	173.3590
3.040000	77.811	171.7531
3.070000	78.016	170.5516
3.110000	78.284	168.9542
3.150000	78.546	167.3656
3.200000	78.863	165.3979
3.250000	79.172	163.4543
3.300000	79.472	161.5364
3.350000	79.765	159.6420
3.400000	80.050	157.7613
3.450000	80.327	155.8859
3.500000	80.595	154.0201
3.550000	80.855	152.1707
3.600000	81.108	150.3431
3.650000	81.355	148.5399
3.700000	81.596	146.7594
3.750000	81.830	144.9908
3.820000	82.147	142.5245
3.870000	82.365	140.7763
3.950000	82.702	138.0179
4.000000	82.907	136.3235
4.060000	83.145	134.3165
4.120000	83.376	132.3226
4.180000	83.599	130.3399
4.250000	83.851	128.0516
4.310000	84.060	126.1198
4.370000	84.264	124.2179
4.440000	84.494	122.0239
4.500000	84.684	120.1556
4.550000	84.839	118.6104
4.620000	85.049	116.4722
4.680000	85.225	114.6675
4.750000	85.425	112.5904
4.820000	85.618	110.5312
4.870000	85.752	109.0711
4.940000	85.935	107.0471
5.000000	86.089	105.3351
5.080000	86.288	103.0839
5.150000	86.457	101.1332
5.220000	86.621	99.1985
5.300000	86.804	97.0130
5.380000	86.982	94.8592
5.450000	87.134	92.9950
5.520000	87.283	91.1443
5.600000	87.448	89.0486
5.700000	87.648	86.4654
5.800000	87.842	83.9175
5.900000	88.030	81.3948
6.000000	88.212	78.9048
6.080000	88.354	76.9392
6.150000	88.476	75.2330
6.220000	88.594	73.5382
6.300000	88.727	71.6191
6.400000	88.888	69.2522
6.500000	89.045	66.9137
6.600000	89.197	64.6000
6.700000	89.346	62.3184
6.800000	89.491	60.0690
6.900000	89.631	57.8448
7.000000	89.769	55.6487
7.100000	89.904	53.4838
7.200000	90.036	51.3451
7.300000	90.166	49.2305
7.400000	90.294	47.1418
7.500000	90.419	45.0766
7.620000	90.568	42.6247
7.750000	90.725	39.9993
7.880000	90.880	37.4004
8.000000	91.019	35.0222
8.120000	91.155	32.6615
8.250000	91.298	30.1181
8.380000	91.436	27.5931
8.500000	91.556	25.2769
8.620000	91.671	22.9727
8.750000	91.786	20.5029
8.850000	91.869	18.6209
9.000000	91.982	15.8319
9.120000	92.062	13.6490
9.250000	92.139	11.3314
9.380000	92.206	9.0781
9.500000	92.259	7.0710
9.620000	92.305	5.1323
9.750000	92.347	3.1232
9.880000	92.383	1.2193
10.000000	92.410	-0.4489
10.150000	92.438	-2.4100
10.300000	92.463	-4.2379
10.440000	92.493	-5.8488
10.600000	92.544	-7.5936
10.750000	92.608	-9.1783
10.900000	92.691	-10.7510
11.060000	92.797	-12.4518
11.200000	92.902	-14.0009
11.380000	93.048	-16.0973
11.500000	93.149	-17.5806
11.720000	93.330	-20.4814
11.800000	93.391	-21.5918
12.060000	93.566	-25.3806
12.200000	93.639	-27.4994
12.410000	93.720	-30.7336
12.500000	93.746	-32.1185
12.650000	93.777	-34.4114
12.800000	93.793	-36.6561
13.150000	93.776	-41.5957
13.200000	93.769	-42.2590
13.400000	93.736	-44.8015
13.600000	93.703	-47.1703
13.800000	93.676	-49.3920
14.000000	93.662	-51.5076
14.300000	93.670	-54.5894
14.500000	93.691	-56.6440
14.750000	93.730	-59.2627
15.000000	93.771	-61.9504
15.250000	93.809	-64.6891
15.500000	93.839	-67.4457
15.750000	93.862	-70.1841
16.000000	93.883	-72.8828
16.250000	93.908	-75.5405
16.500000	93.936	-78.1703
16.750000	93.969	-80.7927
17.000000	94.002	-83.4228
17.250000	94.032	-86.0609
17.500000	94.054	-88.6932
17.750000	94.069	-91.2935
18.000000	94.075	-93.8348
18.250000	94.077	-96.2990
18.500000	94.079	-98.6821
18.750000	94.085	-100.9977
19.000000	94.097	-103.2713
19.250000	94.114	-105.5298
19.500000	94.133	-107.7932
19.750000	94.150	-110.0669
20.000000	94.161	-112.3408
20.299999	94.163	-115.0402
20.600000	94.155	-117.6707
20.900000	94.144	-120.2098
21.200001	94.136	-122.6647
21.400000	94.136	-124.2712
21.799999	94.148	-127.4775
22.000000	94.158	-129.1038
22.400000	94.178	-132.4330
22.700001	94.183	-134.9835
23.000000	94.177	-137.5414
23.299999	94.159	-140.0640
23.600000	94.133	-142.5179
24.000000	94.100	-145.6681
24.299999	94.083	-147.9612
24.700001	94.076	-150.9904
25.000000	94.079	-153.2828
25.400000	94.088	-156.3972
25.799999	94.091	-159.5638
26.200001	94.084	-162.7354
26.500000	94.073	-165.0872
26.900000	94.053	-168.1645
27.200001	94.038	-170.4280
27.600000	94.019	-173.3984
28.000000	94.002	-176.3304
28.500000	93.983	-179.9536
29.000000	93.964	176.4664
29.500000	93.947	172.9197
30.000000	93.929	169.3920
30.400000	93.911	166.5851
30.700001	93.895	164.4980
31.100000	93.872	161.7509
31.500000	93.848	159.0494
32.000000	93.824	155.7177
32.500000	93.804	152.3987
33.000000	93.783	149.0764
33.500000	93.757	145.7739
34.000000	93.728	142.5199
34.500000	93.702	139.3069
35.000000	93.680	136.1003
35.500000	93.656	132.8834
36.000000	93.625	129.6807
36.500000	93.589	126.5282
37.000000	93.556	123.4283
37.500000	93.527	120.3478
38.200001	93.488	116.0236
38.700001	93.455	112.9454
39.500000	93.398	108.1025
40.000000	93.365	105.1218
40.599998	93.328	101.5657
41.200001	93.292	98.0252
41.799999	93.255	94.5023
42.500000	93.209	90.4187
43.099998	93.164	86.9595
43.700001	93.119	83.5547
44.400002	93.070	79.6285
45.000000	93.030	76.2684
45.500000	92.995	73.4663
46.200001	92.941	69.5554
46.799999	92.892	66.2297
47.500000	92.831	62.4119
48.200001	92.780	58.6727
48.700001	92.755	56.0057
49.400002	92.728	52.1916
50.000000	92.696	48.8629
50.799999	92.632	44.5082
51.500000	92.574	40.8557
52.200001	92.526	37.2893
53.000000	92.477	33.2338
53.799999	92.425	29.1832
54.500000	92.376	25.6625
55.200001	92.331	22.1470
56.000000	92.284	18.0554
57.000000	92.216	12.8621
58.000000	92.151	7.6989
59.000000	92.085	2.6853
60.000000	92.086	-1.9685
60.799999	92.155	-6.1189
61.500000	92.140	-10.1796
62.200001	92.010	-13.9261
63.000000	91.853	-17.2640
64.000000	91.792	-21.1463
65.000000	91.741	-25.5363
66.000000	91.665	-29.8695
67.000000	91.632	-34.3825
68.000000	91.576	-39.3036
69.000000	91.468	-44.1181
70.000000	91.371	-48.6189
71.000000	91.304	-53.0157
72.000000	91.255	-57.4371
73.000000	91.202	-61.9526
74.000000	91.129	-66.4531
75.000000	91.054	-70.8475
76.199997	90.978	-76.0803
77.500000	90.906	-81.7576
78.800003	90.828	-87.3860
80.000000	90.753	-92.4570
81.199997	90.683	-97.4745
82.500000	90.606	-102.9031
83.800003	90.527	-108.3099
85.000000	90.456	-113.2633
86.199997	90.391	-118.1742
87.500000	90.322	-123.4564
88.500000	90.267	-127.4911
90.000000	90.180	-133.4930
91.199997	90.108	-138.2537
92.500000	90.031	-143.3889
93.800003	89.960	-148.4836
95.000000	89.901	-153.1740
96.199997	89.842	-157.8458
97.500000	89.775	-162.8591
98.800003	89.706	-167.8177
100.000000	89.642	-172.3508
101.500000	89.563	-177.9968
103.000000	89.487	176.3687
104.400002	89.418	171.1299
106.000000	89.339	165.1797
107.500000	89.263	159.6758
109.000000	89.186	154.2356
110.599998	89.108	148.4626
112.000000	89.041	143.4242
113.800003	88.960	136.9824
115.000000	88.905	132.7220
117.199997	88.796	125.0320
118.000000	88.754	122.2700
120.599998	88.632	113.2765
122.000000	88.567	108.3665
124.099998	88.472	101.1459
125.000000	88.438	98.0964
126.500000	88.382	93.0424
128.000000	88.322	88.0256
131.500000	88.178	76.3809
132.000000	88.158	74.7283
134.000000	88.079	68.1740
136.000000	88.001	61.7231
138.000000	87.923	55.3431
140.000000	87.847	49.0106
143.000000	87.751	39.5800
145.000000	87.697	33.3363
147.500000	87.635	25.5410
150.000000	87.568	17.7484
152.500000	87.497	9.9983
155.000000	87.421	2.3021
157.500000	87.338	-5.3068
160.000000	87.251	-12.8206
162.500000	87.159	-20.2582
165.000000	87.062	-27.6381
167.500000	86.965	-34.9633
170.000000	86.870	-42.2162
172.500000	86.776	-49.3840
175.000000	86.682	-56.4899
177.500000	86.590	-63.5510
180.000000	86.498	-70.5114
182.500000	86.407	-77.3328
185.000000	86.318	-84.0895
187.500000	86.231	-90.8619
190.000000	86.149	-97.5382
192.500000	86.083	-104.0747
195.000000	86.036	-110.5614
197.500000	86.006	-117.1067
200.000000	85.985	-123.7572
203.000000	85.949	-131.7997
206.000000	85.894	-139.7720
209.000000	85.833	-147.6388
212.000000	85.772	-155.4032
214.000000	85.731	-160.5269
218.000000	85.653	-170.6924
220.000000	85.616	-175.7322
224.000000	85.539	174.2456
227.000000	85.477	166.7849
230.000000	85.414	159.4044
233.000000	85.354	152.0857
236.000000	85.301	144.8069
240.000000	85.231	135.2217
243.000000	85.167	128.1772
247.000000	85.086	118.8542
250.000000	85.026	111.8945
254.000000	84.946	102.7190
258.000000	84.869	93.6383
262.000000	84.796	84.6626
265.000000	84.744	78.0020
269.000000	84.682	69.2085
272.000000	84.642	62.6764
276.000000	84.594	54.0133
280.000000	84.546	45.3563
285.000000	84.481	34.6008
290.000000	84.409	23.9878
295.000000	84.335	13.5144
300.000000	84.263	3.1742
304.000000	84.203	-4.9878
307.000000	84.160	-11.0687
311.000000	84.109	-19.0842
315.000000	84.061	-27.0134
320.000000	84.002	-36.8602
325.000000	83.945	-46.6072
330.000000	83.888	-56.2411
335.000000	83.833	-65.7510
340.000000	83.780	-75.1769
345.000000	83.728	-84.5254
350.000000	83.677	-93.7629
355.000000	83.627	-102.8872
360.000000	83.576	-111.9105
365.000000	83.530	-120.8181
370.000000	83.485	-129.6394
375.000000	83.442	-138.3676
382.000000	83.384	-150.4246
387.000000	83.343	-158.9172
395.000000	83.278	-172.3521
400.000000	83.239	179.3580
406.000000	83.197	169.5352
412.000000	83.155	159.8313
418.000000	83.115	150.2401
425.000000	83.069	139.2423
431.000000	83.030	129.9456
437.000000	82.994	120.7524
444.000000	82.954	110.1785
450.000000	82.921	101.2224
455.000000	82.895	93.8306
462.000000	82.860	83.6129
468.000000	82.831	74.9645
475.000000	82.797	64.9888
482.000000	82.764	55.1904
487.000000	82.742	48.3069
494.000000	82.715	38.7783
500.000000	82.693	30.7312
508.000000	82.661	20.1292
515.000000	82.635	10.9526
522.000000	82.610	1.9087
530.000000	82.583	-8.2306
538.000000	82.559	-18.1697
545.000000	82.541	-26.7605
552.000000	82.522	-35.2292
560.000000	82.500	-44.7528
570.000000	82.474	-56.4688
580.000000	82.453	-67.9272
590.000000	82.433	-79.1211
600.000000	82.417	-90.0664
608.000000	82.406	-98.6992
615.000000	82.395	-106.1245
622.000000	82.385	-113.4268
630.000000	82.378	-121.6353
640.000000	82.371	-131.6877
650.000000	82.366	-141.5220
660.000000	82.363	-151.1445
670.000000	82.358	-160.5754
680.000000	82.356	-169.8013
690.000000	82.356	-178.8130
700.000000	82.362	172.3787
710.000000	82.370	163.7739
720.000000	82.381	155.3540
730.000000	82.397	147.1123
740.000000	82.420	139.0366
750.000000	82.448	131.0967
762.000000	82.482	121.6470
775.000000	82.460	111.4824
788.000000	82.362	102.2075
800.000000	82.345	94.4099
812.000000	82.381	86.6562
825.000000	82.418	78.3452
838.000000	82.450	70.3882
850.000000	82.514	63.4854
862.000000	82.645	56.6362
875.000000	82.773	48.9580
885.000000	82.832	43.1587
900.000000	82.899	34.8459
912.000000	82.956	28.5125
925.000000	83.023	21.9216
938.000000	83.095	15.6118
950.000000	83.166	10.0134
962.000000	83.240	4.6289
975.000000	83.326	-0.9685
988.000000	83.420	-6.3518
1000.000000	83.507	-11.1406
1015.000000	83.614	-16.9189
1030.000000	83.724	-22.4429
1044.000000	83.830	-27.3638
1060.000000	83.953	-32.7229
1075.000000	84.070	-37.4734
1090.000000	84.189	-41.9536
1106.000000	84.313	-46.4607
1120.000000	84.418	-50.1736
1138.000000	84.556	-54.5957
1150.000000	84.649	-57.3457
1172.000000	84.808	-62.0234
1180.000000	84.863	-63.6111
1206.000000	85.042	-68.2798
1220.000000	85.135	-70.4846
1241.000000	85.272	-73.3699
1250.000000	85.331	-74.4377
1265.000000	85.435	-75.9958
1280.000000	85.541	-77.3159
1315.000000	85.780	-79.6501
1320.000000	85.814	-79.8892
1340.000000	85.946	-80.5947
1360.000000	86.068	-80.9055
1380.000000	86.185	-80.7925
1400.000000	86.304	-80.2212
1430.000000	86.482	-78.6140
1450.000000	86.599	-77.1160
1475.000000	86.747	-74.7539
1500.000000	86.889	-71.8242
1525.000000	87.032	-68.2729
1550.000000	87.170	-64.1438
1575.000000	87.304	-59.4316
1600.000000	87.442	-54.1418
1625.000000	87.576	-48.3723
1650.000000	87.706	-42.1282
1675.000000	87.836	-35.3699
1700.000000	87.960	-28.0864
1725.000000	88.079	-20.2065
1750.000000	88.201	-11.7017
1775.000000	88.317	-2.6777
1800.000000	88.431	6.8428
1825.000000	88.554	16.9949
1850.000000	88.696	27.7842
1875.000000	88.861	39.1367
1900.000000	89.070	51.0156
1925.000000	89.336	63.2651
1950.000000	89.645	75.5913
1975.000000	89.959	87.8474
2000.000000	90.248	100.1462
2030.000000	90.552	115.2529
2060.000000	90.809	130.8804
2090.000000	91.030	147.0815
2120.000000	91.233	163.9395
2140.000000	91.361	175.5449
2180.000000	91.601	-160.4939
2200.000000	91.713	-148.1555
2240.000000	91.928	-122.5986
2270.000000	92.081	-102.7388
2300.000000	92.217	-82.4404
2330.000000	92.340	-61.6462
2360.000000	92.455	-40.2510
2400.000000	92.593	-10.8781
2430.000000	92.681	11.7292
2470.000000	92.784	42.7803
2500.000000	92.859	66.8455
2540.000000	92.974	99.9042
2580.000000	93.128	133.9757
2620.000000	93.331	168.8521
2650.000000	93.495	-164.8174
2690.000000	93.688	-129.5862
2720.000000	93.800	-102.8663
2760.000000	93.897	-66.6056
2800.000000	93.939	-29.3885
2850.000000	93.939	18.6141
2900.000000	93.895	67.9695
2950.000000	93.835	118.7611
3000.000000	93.760	170.8751
3040.000000	93.687	-146.4712
3070.000000	93.627	-113.8567
3110.000000	93.542	-69.6589
3150.000000	93.448	-24.7012
3200.000000	93.323	32.7498
3250.000000	93.194	91.4583
3300.000000	93.063	151.3236
3350.000000	92.944	-147.3230
3400.000000	92.835	-84.9802
3450.000000	92.730	-21.6910
3500.000000	92.637	42.9187
3550.000000	92.551	108.4753
3600.000000	92.478	174.9769
3650.000000	92.463	-115.7108
3700.000000	92.622	-45.6412
3750.000000	92.730	-4.5273
3820.000000	92.355	10.2877
3870.000000	92.232	11.5802
3950.000000	92.192	11.9209
4000.000000	92.191	12.0488
4060.000000	92.209	12.3549
4120.000000	92.237	12.5779
4180.000000	92.272	12.5748
4250.000000	92.324	12.5363
4310.000000	92.376	12.5129
4370.000000	92.427	12.4021
4440.000000	92.493	12.2671
4500.000000	92.564	12.2373
4550.000000	92.630	12.1565
4620.000000	92.727	11.8746
4680.000000	92.818	11.6444
4750.000000	92.936	11.4380
4820.000000	93.050	10.8898
4870.000000	93.125	10.2997
4940.000000	93.216	9.3929
5000.000000	93.264	8.4421
5080.000000	93.277	6.9469
5150.000000	93.253	5.6218
5220.000000	93.198	4.2786
5300.000000	93.102	2.7797
5380.000000	92.976	1.4840
5450.000000	92.837	0.3717
5520.000000	92.671	-0.6865
5600.000000	92.457	-1.5833
5700.000000	92.158	-2.4271
5800.000000	91.840	-2.9172
5900.000000	91.528	-2.9178
6000.000000	91.224	-2.8140
6080.000000	90.997	-2.5045
6150.000000	90.812	-2.0554
6220.000000	90.642	-1.4846
6300.000000	90.482	-0.5979
6400.000000	90.366	1.0468
6500.000000	90.345	2.7331
6600.000000	90.374	3.8689
6700.000000	90.422	4.8839
6800.000000	90.497	5.9746
6900.000000	90.601	6.8950
7000.000000	90.740	7.8252
7100.000000	90.929	9.0060
7200.000000	91.165	10.0159
7300.000000	91.456	10.5798
7400.000000	91.815	10.9037
7500.000000	92.245	10.9122
7620.000000	92.829	9.7526
7750.000000	93.488	6.7949
7880.000000	94.067	2.2777
8000.000000	94.397	-3.5128
8120.000000	94.442	-10.4154
8250.000000	94.153	-18.0656
8380.000000	93.544	-25.1289
8500.000000	92.740	-30.3260
8620.000000	91.717	-31.0048
8750.000000	90.487	-11.5017
8850.000000	89.701	33.6457
9000.000000	88.522	138.0932
9120.000000	87.580	-126.9991
9250.000000	86.590	-30.2099
9380.000000	85.670	66.0136
9500.000000	84.903	157.7071
9620.000000	84.209	-109.3992
9750.000000	83.536	-7.7197
9880.000000	82.952	95.5966
10000.000000	82.502	-166.4384
10150.000000	82.050	-44.4415
10300.000000	81.706	80.1729
10440.000000	81.472	-161.5629
10600.000000	81.308	-26.5575
10750.000000	81.266	101.5043
10900.000000	81.331	-126.5310
11060.000000	81.504	12.5905
11200.000000	81.747	136.2054
11380.000000	82.182	-62.8706
11500.000000	82.520	44.0084
11720.000000	83.150	-126.9502
11800.000000	83.394	-52.3967
12060.000000	84.375	-169.1470
12200.000000	84.925	-45.5493
12410.000000	85.502	138.6284
12500.000000	85.605	-142.6724
12650.000000	85.543	-14.2197
12800.000000	85.197	116.8931
13150.000000	83.574	81.8701
13200.000000	83.279	130.0566
13400.000000	82.060	-36.6655
13600.000000	81.467	3.4158
13800.000000	81.891	28.8635
14000.000000	81.725	168.2178
14300.000000	81.084	161.5210
14500.000000	80.973	26.4800
14750.000000	81.183	-77.8931
15000.000000	81.709	-169.0488
15250.000000	82.373	102.1582
15500.000000	82.734	-8.5547
15750.000000	82.316	-125.8369
16000.000000	81.028	127.4858
16250.000000	79.230	29.8999
16500.000000	77.324	-41.1030
16750.000000	75.579	-98.8135
17000.000000	74.125	179.5029
17250.000000	72.983	115.0371
17500.000000	72.116	69.1450
17750.000000	71.504	-4.5854
18000.000000	71.169	-69.8677
18250.000000	71.124	-93.5449
18500.000000	71.354	-141.4043
18750.000000	71.869	147.3857
19000.000000	72.707	144.0508
19250.000000	73.818	-12.2148
19500.000000	74.942	10.9863
19750.000000	75.663	119.5762
