* Measurement data measured by REW V5.31.3
* Source: Headset (Odo By VECLAN.COM), MICROPHONE (Master Volume), R, volume: 0.250
* Format: 1M Log Swept Sine, 1 sweep at -12.0 dBFS with no timing reference
* Dated: 02 13, 25 2:31:57 AM
* REW Settings:
*  C-weighting compensation: Off
*  Target level: 75.0 dB
* Note: ; 
* Measurement: maono hm25 L
* Smoothing: 1/24 octave
* Frequency Step: 1/48 octave
* Start Frequency: 1.000 Hz
*
* Freq(Hz) SPL(dB) Phase(degrees)
1.000000 55.981 59.1049
1.015000 56.305 58.7348
1.030000 56.626 58.3287
1.044000 56.920 57.9174
1.060000 57.251 57.4095
1.075000 57.556 56.8974
1.090000 57.854 56.3526
1.106000 58.166 55.7478
1.120000 58.434 55.2184
1.138000 58.773 54.5504
1.150000 58.996 54.1130
1.172000 59.398 53.3247
1.180000 59.542 53.0417
1.206000 60.003 52.1314
1.220000 60.247 51.6455
1.241000 60.607 50.9192
1.250000 60.759 50.6082
1.265000 61.011 50.0894
1.280000 61.259 49.5690
1.315000 61.828 48.3432
1.320000 61.908 48.1663
1.340000 62.226 47.4530
1.360000 62.539 46.7293
1.380000 62.848 45.9936
1.400000 63.154 45.2443
1.430000 63.606 44.0923
1.450000 63.904 43.3047
1.475000 64.272 42.3079
1.500000 64.633 41.3245
1.525000 64.986 40.3647
1.550000 65.332 39.4248
1.575000 65.670 38.4997
1.600000 66.002 37.5846
1.625000 66.328 36.6751
1.650000 66.647 35.7670
1.675000 66.962 34.8566
1.700000 67.270 33.9403
1.725000 67.575 33.0150
1.750000 67.874 32.0778
1.775000 68.170 31.1259
1.800000 68.462 30.1572
1.825000 68.751 29.1714
1.850000 69.035 28.1755
1.875000 69.315 27.1810
1.900000 69.589 26.1928
1.925000 69.858 25.2119
1.950000 70.122 24.2385
1.975000 70.381 23.2724
2.000000 70.636 22.3129
2.030000 70.937 21.1691
2.060000 71.232 20.0321
2.090000 71.521 18.8997
2.120000 71.806 17.7696
2.140000 71.993 17.0162
2.180000 72.363 15.5065
2.200000 72.544 14.7495
2.240000 72.901 13.2348
2.270000 73.162 12.1029
2.300000 73.418 10.9773
2.330000 73.668 9.8594
2.360000 73.914 8.7502
2.400000 74.234 7.2852
2.430000 74.469 6.1968
2.470000 74.776 4.7583
2.500000 75.002 3.6878
2.540000 75.298 2.2691
2.580000 75.588 0.8560
2.620000 75.871 -0.5560
2.650000 76.078 -1.6128
2.690000 76.348 -3.0152
2.720000 76.545 -4.0596
2.760000 76.803 -5.4399
2.800000 77.055 -6.8041
2.850000 77.362 -8.4852
2.900000 77.660 -10.1397
2.950000 77.952 -11.7745
3.000000 78.234 -13.4034
3.040000 78.452 -14.7023
3.070000 78.613 -15.6713
3.110000 78.822 -16.9531
3.150000 79.027 -18.2206
3.200000 79.276 -19.7808
3.250000 79.518 -21.3113
3.300000 79.755 -22.8141
3.350000 79.984 -24.3021
3.400000 80.206 -25.7826
3.450000 80.421 -27.2514
3.500000 80.630 -28.7021
3.550000 80.833 -30.1294
3.600000 81.030 -31.5290
3.650000 81.223 -32.8996
3.700000 81.411 -34.2486
3.750000 81.593 -35.5860
3.820000 81.839 -37.4383
3.870000 82.008 -38.7411
3.950000 82.270 -40.7792
4.000000 82.429 -42.0196
4.060000 82.615 -43.4775
4.120000 82.795 -44.9141
4.180000 82.968 -46.3321
4.250000 83.164 -47.9575
4.310000 83.327 -49.3208
4.370000 83.486 -50.6535
4.440000 83.666 -52.1734
4.500000 83.816 -53.4548
4.550000 83.937 -54.5087
4.620000 84.102 -55.9605
4.680000 84.240 -57.1804
4.750000 84.397 -58.5733
4.820000 84.549 -59.9378
4.870000 84.656 -60.8988
4.940000 84.800 -62.2256
5.000000 84.921 -63.3444
5.080000 85.078 -64.8073
5.150000 85.211 -66.0613
5.220000 85.340 -67.2960
5.300000 85.483 -68.6859
5.380000 85.622 -70.0505
5.450000 85.739 -71.2216
5.520000 85.853 -72.3722
5.600000 85.979 -73.6680
5.700000 86.129 -75.2594
5.800000 86.273 -76.8119
5.900000 86.410 -78.3228
6.000000 86.541 -79.8014
6.080000 86.640 -80.9603
6.150000 86.724 -81.9530
6.220000 86.805 -82.9237
6.300000 86.895 -84.0087
6.400000 87.001 -85.3335
6.500000 87.102 -86.6203
6.600000 87.200 -87.8637
6.700000 87.293 -89.0657
6.800000 87.383 -90.2308
6.900000 87.470 -91.3596
7.000000 87.555 -92.4514
7.100000 87.638 -93.5078
7.200000 87.720 -94.5337
7.300000 87.800 -95.5338
7.400000 87.880 -96.5097
7.500000 87.959 -97.4623
7.620000 88.053 -98.5825
7.750000 88.154 -99.7768
7.880000 88.254 -100.9526
8.000000 88.344 -102.0255
8.120000 88.431 -103.0917
8.250000 88.522 -104.2402
8.380000 88.610 -105.3784
8.500000 88.686 -106.4199
8.620000 88.758 -107.4532
8.750000 88.831 -108.5559
8.850000 88.883 -109.3890
9.000000 88.955 -110.6156
9.120000 89.009 -111.5712
9.250000 89.063 -112.5760
9.380000 89.114 -113.5510
9.500000 89.158 -114.4239
9.620000 89.202 -115.2699
9.750000 89.247 -116.1586
9.880000 89.286 -117.0232
10.000000 89.315 -117.8017
10.150000 89.344 -118.7517
10.300000 89.368 -119.6831
10.440000 89.387 -120.5384
10.600000 89.406 -121.5001
10.750000 89.422 -122.3881
10.900000 89.436 -123.2608
11.060000 89.448 -124.1696
11.200000 89.456 -124.9446
11.380000 89.466 -125.9078
11.500000 89.471 -126.5269
11.720000 89.481 -127.6187
11.800000 89.486 -128.0026
12.060000 89.504 -129.2154
12.200000 89.517 -129.8582
12.410000 89.544 -130.8238
12.500000 89.559 -131.2441
12.650000 89.589 -131.9557
12.800000 89.621 -132.6822
13.150000 89.683 -134.4282
13.200000 89.689 -134.6788
13.400000 89.707 -135.6728
13.600000 89.714 -136.6245
13.800000 89.709 -137.5065
14.000000 89.699 -138.2935
14.300000 89.683 -139.2763
14.500000 89.681 -139.8097
14.750000 89.697 -140.3899
15.000000 89.735 -140.9406
15.250000 89.793 -141.5418
15.500000 89.862 -142.2459
15.750000 89.931 -143.0690
16.000000 89.989 -143.9908
16.250000 90.031 -144.9578
16.500000 90.055 -145.9119
16.750000 90.063 -146.7983
17.000000 90.064 -147.5875
17.250000 90.065 -148.2807
17.500000 90.073 -148.9043
17.750000 90.089 -149.5028
18.000000 90.112 -150.1155
18.250000 90.137 -150.7661
18.500000 90.156 -151.4522
18.750000 90.167 -152.1482
19.000000 90.167 -152.8176
19.250000 90.159 -153.4238
19.500000 90.151 -153.9513
19.750000 90.150 -154.4086
20.000000 90.159 -154.8305
20.299999 90.187 -155.3594
20.600000 90.226 -155.9826
20.900000 90.262 -156.7291
21.200001 90.279 -157.5649
21.400000 90.277 -158.1295
21.799999 90.240 -159.1431
22.000000 90.212 -159.5424
22.400000 90.160 -160.0841
22.700001 90.143 -160.3176
23.000000 90.155 -160.5047
23.299999 90.191 -160.7441
23.600000 90.241 -161.0999
24.000000 90.306 -161.7687
24.299999 90.342 -162.3678
24.700001 90.369 -163.1940
25.000000 90.377 -163.7798
25.400000 90.381 -164.4841
25.799999 90.386 -165.1184
26.200001 90.395 -165.7296
26.500000 90.404 -166.1991
26.900000 90.411 -166.8517
27.200001 90.410 -167.3479
27.600000 90.397 -167.9707
28.000000 90.378 -168.4912
28.500000 90.366 -168.9854
29.000000 90.390 -169.4662
29.500000 90.436 -170.1735
30.000000 90.457 -171.1344
30.400000 90.436 -171.9109
30.700001 90.403 -172.3821
31.100000 90.361 -172.8026
31.500000 90.346 -173.0580
32.000000 90.379 -173.4318
32.500000 90.432 -174.1071
33.000000 90.452 -175.0114
33.500000 90.429 -175.8577
34.000000 90.394 -176.4669
34.500000 90.380 -176.9111
35.000000 90.389 -177.3788
35.500000 90.400 -177.9533
36.000000 90.396 -178.5666
36.500000 90.380 -179.1150
37.000000 90.366 -179.5751
37.500000 90.361 179.9965
38.200001 90.362 179.3532
38.700001 90.360 178.8653
39.500000 90.354 178.0753
40.000000 90.347 177.5798
40.599998 90.335 177.0165
41.200001 90.329 176.5009
41.799999 90.337 175.9375
42.500000 90.334 175.1388
43.099998 90.302 174.5311
43.700001 90.274 174.1765
44.400002 90.299 173.8214
45.000000 90.341 173.1996
45.500000 90.344 172.4947
46.200001 90.288 171.6577
46.799999 90.231 171.2954
47.500000 90.205 171.0759
48.200001 90.212 170.7778
48.700001 90.221 170.4879
49.400002 90.236 170.0017
50.000000 90.246 169.5073
50.799999 90.243 168.7889
51.500000 90.228 168.2090
52.200001 90.218 167.6817
53.000000 90.209 167.0567
53.799999 90.193 166.4468
54.500000 90.182 165.9817
55.200001 90.182 165.4972
56.000000 90.173 164.8617
57.000000 90.137 164.1997
58.000000 90.126 163.7323
59.000000 90.140 163.0840
60.000000 90.132 162.2917
60.799999 90.113 161.6932
61.500000 90.095 161.2070
62.200001 90.075 160.7496
63.000000 90.054 160.2648
64.000000 90.031 159.7277
65.000000 90.019 159.2516
66.000000 90.019 158.7512
67.000000 90.019 158.1806
68.000000 90.010 157.5919
69.000000 90.000 157.0010
70.000000 89.986 156.3723
71.000000 89.965 155.7613
72.000000 89.947 155.1721
73.000000 89.928 154.5679
74.000000 89.906 153.9979
75.000000 89.887 153.4544
76.199997 89.864 152.8057
77.500000 89.840 152.1190
78.800003 89.816 151.4326
80.000000 89.793 150.7917
81.199997 89.771 150.1608
82.500000 89.748 149.4858
83.800003 89.725 148.8322
85.000000 89.702 148.2409
86.199997 89.679 147.6755
87.500000 89.657 147.0590
88.500000 89.638 146.5638
90.000000 89.605 145.8250
91.199997 89.579 145.2534
92.500000 89.553 144.6396
93.800003 89.528 144.0141
95.000000 89.504 143.4321
96.199997 89.478 142.8588
97.500000 89.449 142.2583
98.800003 89.423 141.6620
100.000000 89.398 141.1086
101.500000 89.366 140.4279
103.000000 89.334 139.7726
104.400002 89.304 139.1642
106.000000 89.268 138.4842
107.500000 89.236 137.8586
109.000000 89.203 137.2171
110.599998 89.165 136.5384
112.000000 89.132 135.9534
113.800003 89.091 135.2100
115.000000 89.063 134.7254
117.199997 89.014 133.8477
118.000000 88.995 133.5351
120.599998 88.935 132.5220
122.000000 88.899 131.9677
124.099998 88.847 131.1573
125.000000 88.826 130.8063
126.500000 88.794 130.2205
128.000000 88.762 129.6524
131.500000 88.690 128.3492
132.000000 88.680 128.1663
134.000000 88.638 127.4475
136.000000 88.599 126.7291
138.000000 88.561 126.0035
140.000000 88.518 125.2735
143.000000 88.450 124.2569
145.000000 88.406 123.5816
147.500000 88.352 122.7394
150.000000 88.296 121.9005
152.500000 88.238 121.0733
155.000000 88.180 120.2574
157.500000 88.123 119.4554
160.000000 88.063 118.6712
162.500000 87.993 117.8864
165.000000 87.919 117.1114
167.500000 87.846 116.3526
170.000000 87.773 115.6023
172.500000 87.698 114.8584
175.000000 87.624 114.1215
177.500000 87.551 113.3991
180.000000 87.478 112.6881
182.500000 87.404 111.9807
185.000000 87.330 111.2812
187.500000 87.258 110.5913
190.000000 87.186 109.9077
192.500000 87.113 109.2313
195.000000 87.039 108.5699
197.500000 86.966 107.9202
200.000000 86.899 107.2715
203.000000 86.823 106.5050
206.000000 86.749 105.7641
209.000000 86.674 105.0333
212.000000 86.601 104.2860
214.000000 86.553 103.7865
218.000000 86.457 102.8217
220.000000 86.409 102.3495
224.000000 86.314 101.4030
227.000000 86.243 100.7134
230.000000 86.172 100.0403
233.000000 86.102 99.3713
236.000000 86.034 98.7016
240.000000 85.940 97.8116
243.000000 85.868 97.1757
247.000000 85.773 96.3387
250.000000 85.700 95.7087
254.000000 85.599 94.8809
258.000000 85.496 94.0872
262.000000 85.393 93.2947
265.000000 85.316 92.7026
269.000000 85.217 91.9153
272.000000 85.144 91.3400
276.000000 85.048 90.6005
280.000000 84.951 89.8559
285.000000 84.829 88.9302
290.000000 84.709 88.0270
295.000000 84.588 87.1725
300.000000 84.467 86.3303
304.000000 84.370 85.6445
307.000000 84.299 85.1383
311.000000 84.207 84.4810
315.000000 84.114 83.8303
320.000000 83.998 83.0276
325.000000 83.882 82.2509
330.000000 83.767 81.4803
335.000000 83.655 80.7093
340.000000 83.544 79.9318
345.000000 83.432 79.1936
350.000000 83.320 78.4839
355.000000 83.209 77.7893
360.000000 83.097 77.1033
365.000000 82.987 76.4274
370.000000 82.879 75.7711
375.000000 82.769 75.0991
382.000000 82.618 74.1914
387.000000 82.511 73.5735
395.000000 82.343 72.5693
400.000000 82.240 71.9606
406.000000 82.116 71.2565
412.000000 81.990 70.5398
418.000000 81.864 69.8277
425.000000 81.718 69.0253
431.000000 81.595 68.3791
437.000000 81.475 67.7267
444.000000 81.336 66.9734
450.000000 81.219 66.3676
455.000000 81.123 65.8826
462.000000 80.986 65.2127
468.000000 80.869 64.6379
475.000000 80.733 63.9888
482.000000 80.595 63.3407
487.000000 80.502 62.8799
494.000000 80.376 62.2391
500.000000 80.268 61.7123
508.000000 80.125 61.0330
515.000000 80.001 60.4117
522.000000 79.874 59.8132
530.000000 79.723 59.1783
538.000000 79.573 58.5546
545.000000 79.442 58.0082
552.000000 79.314 57.4564
560.000000 79.171 56.8456
570.000000 78.988 56.1260
580.000000 78.804 55.3905
590.000000 78.615 54.6423
600.000000 78.410 53.8939
608.000000 78.220 53.3495
615.000000 78.030 53.1082
622.000000 77.855 53.3454
630.000000 77.750 54.0176
640.000000 77.728 54.0817
650.000000 77.670 53.3527
660.000000 77.556 52.5894
670.000000 77.416 51.9206
680.000000 77.270 51.3580
690.000000 77.126 50.8533
700.000000 76.983 50.3892
710.000000 76.843 49.9882
720.000000 76.707 49.6245
730.000000 76.572 49.2830
740.000000 76.440 48.9655
750.000000 76.308 48.6800
762.000000 76.153 48.3609
775.000000 75.992 48.0250
788.000000 75.836 47.7559
800.000000 75.697 47.5178
812.000000 75.566 47.2878
825.000000 75.429 47.0646
838.000000 75.300 46.8465
850.000000 75.189 46.6404
862.000000 75.086 46.4285
875.000000 74.987 46.1672
885.000000 74.922 45.9265
900.000000 74.839 45.3939
912.000000 74.773 44.6364
925.000000 74.659 43.3406
938.000000 74.411 41.8534
950.000000 74.050 41.2479
962.000000 73.704 41.9426
975.000000 73.483 43.3355
988.000000 73.399 44.4319
1000.000000 73.369 45.0257
1015.000000 73.342 45.3873
1030.000000 73.304 45.5167
1044.000000 73.259 45.5134
1060.000000 73.204 45.4390
1075.000000 73.149 45.3205
1090.000000 73.087 45.1714
1106.000000 73.017 44.9902
1120.000000 72.954 44.8171
1138.000000 72.867 44.5757
1150.000000 72.809 44.4137
1172.000000 72.696 44.0986
1180.000000 72.653 43.9806
1206.000000 72.508 43.6156
1220.000000 72.425 43.4454
1241.000000 72.298 43.2270
1250.000000 72.243 43.1461
1265.000000 72.149 43.0264
1280.000000 72.053 42.9494
1315.000000 71.821 42.8766
1320.000000 71.787 42.8801
1340.000000 71.653 42.9407
1360.000000 71.522 43.0675
1380.000000 71.394 43.2663
1400.000000 71.267 43.5322
1430.000000 71.078 44.0757
1450.000000 70.956 44.5223
1475.000000 70.809 45.2116
1500.000000 70.672 46.0396
1525.000000 70.552 46.9739
1550.000000 70.449 48.0365
1575.000000 70.360 49.2204
1600.000000 70.295 50.5122
1625.000000 70.257 51.8875
1650.000000 70.241 53.3428
1675.000000 70.252 54.8718
1700.000000 70.294 56.4406
1725.000000 70.367 58.0421
1750.000000 70.471 59.6415
1775.000000 70.608 61.2086
1800.000000 70.779 62.7156
1825.000000 70.982 64.1202
1850.000000 71.217 65.4051
1875.000000 71.483 66.5509
1900.000000 71.771 67.5336
1925.000000 72.081 68.3269
1950.000000 72.411 68.9238
1975.000000 72.753 69.2882
2000.000000 73.105 69.4012
2030.000000 73.532 69.2137
2060.000000 73.951 68.6846
2090.000000 74.357 67.8315
2120.000000 74.738 66.6872
2140.000000 74.976 65.7903
2180.000000 75.402 63.7544
2200.000000 75.589 62.6595
2240.000000 75.923 60.4243
2270.000000 76.150 58.7424
2300.000000 76.366 57.0283
2330.000000 76.573 55.2076
2360.000000 76.760 53.2203
2400.000000 76.950 50.3332
2430.000000 77.033 48.1054
2470.000000 77.069 45.3016
2500.000000 77.055 43.4239
2540.000000 77.012 41.2256
2580.000000 76.956 39.3231
2620.000000 76.888 37.6783
2650.000000 76.830 36.6021
2690.000000 76.749 35.3609
2720.000000 76.686 34.5811
2760.000000 76.602 33.7520
2800.000000 76.527 33.1288
2850.000000 76.455 32.5750
2900.000000 76.411 32.2254
2950.000000 76.397 32.0012
3000.000000 76.406 31.8575
3040.000000 76.428 31.7747
3070.000000 76.450 31.7145
3110.000000 76.486 31.6396
3150.000000 76.525 31.5831
3200.000000 76.574 31.5632
3250.000000 76.633 31.6100
3300.000000 76.711 31.6928
3350.000000 76.809 31.7545
3400.000000 76.925 31.7432
3450.000000 77.054 31.6580
3500.000000 77.190 31.4890
3550.000000 77.327 31.2348
3600.000000 77.463 30.9109
3650.000000 77.598 30.5331
3700.000000 77.729 30.1091
3750.000000 77.855 29.6375
3820.000000 78.013 28.9186
3870.000000 78.113 28.3889
3950.000000 78.253 27.5725
4000.000000 78.331 27.1104
4060.000000 78.423 26.6256
4120.000000 78.509 26.2264
4180.000000 78.587 25.9158
4250.000000 78.667 25.6888
4310.000000 78.733 25.6052
4370.000000 78.799 25.6327
4440.000000 78.882 25.8097
4500.000000 78.961 26.0829
4550.000000 79.035 26.3846
4620.000000 79.151 26.9062
4680.000000 79.263 27.4468
4750.000000 79.411 28.1930
4820.000000 79.583 29.0568
4870.000000 79.722 29.7420
4940.000000 79.941 30.7897
5000.000000 80.147 31.7549
5080.000000 80.447 33.1068
5150.000000 80.746 34.3151
5220.000000 81.090 35.5047
5300.000000 81.548 36.7983
5380.000000 82.082 37.9721
5450.000000 82.616 38.8429
5520.000000 83.221 39.4866
5600.000000 84.010 39.8078
5700.000000 85.158 39.2334
5800.000000 86.488 36.9004
5900.000000 87.942 31.8169
6000.000000 89.322 22.9253
6080.000000 90.135 12.8830
6150.000000 90.459 2.5672
6220.000000 90.342 -8.1313
6300.000000 89.696 -19.3309
6400.000000 88.362 -30.0475
6500.000000 86.783 -36.6035
6600.000000 85.206 -39.5778
6700.000000 83.781 -39.4730
6800.000000 82.712 -37.5481
6900.000000 81.861 -36.1742
7000.000000 81.004 -34.1796
7100.000000 80.242 -31.1921
7200.000000 79.613 -27.6587
7300.000000 79.103 -23.8347
7400.000000 78.695 -19.8348
7500.000000 78.374 -15.6874
7620.000000 78.100 -10.5566
7750.000000 77.938 -4.8743
7880.000000 77.914 0.8732
8000.000000 78.006 6.1437
8120.000000 78.209 11.3173
8250.000000 78.604 16.7145
8380.000000 79.247 21.5013
8500.000000 80.083 24.7820
8620.000000 81.154 26.3706
8750.000000 82.555 25.0770
8850.000000 83.694 20.8804
9000.000000 85.009 8.2523
9120.000000 85.204 -5.9865
9250.000000 84.254 -21.4467
9380.000000 82.328 -32.7968
9500.000000 80.144 -38.1862
9620.000000 77.946 -39.3195
9750.000000 75.770 -37.2048
9880.000000 73.864 -32.9656
10000.000000 72.329 -27.9091
10150.000000 70.674 -20.6190
10300.000000 69.249 -12.6541
10440.000000 68.077 -4.8209
10600.000000 66.890 4.4684
10750.000000 65.899 13.4084
10900.000000 65.007 22.5366
11060.000000 64.158 32.4215
11200.000000 63.491 41.1698
11380.000000 62.727 52.5312
11500.000000 62.275 60.1764
11720.000000 61.555 74.3664
11800.000000 61.324 79.5832
12060.000000 60.696 96.7306
12200.000000 60.428 106.0674
12410.000000 60.116 120.1295
12500.000000 60.013 126.1601
12650.000000 59.880 136.1967
12800.000000 59.798 146.2111
13150.000000 59.823 169.4218
13200.000000 59.853 172.7004
13400.000000 60.038 -174.3271
13600.000000 60.329 -161.6877
13800.000000 60.705 -149.6074
14000.000000 61.116 -138.2369
14300.000000 61.692 -121.5972
14500.000000 62.157 -109.2981
14750.000000 63.219 -92.5589
15000.000000 65.094 -77.3543
15250.000000 67.732 -68.1382
15500.000000 70.493 -69.8620
15750.000000 72.009 -83.2051
16000.000000 71.261 -99.0700
16250.000000 68.841 -106.1380
16500.000000 66.105 -101.8524
16750.000000 63.874 -90.0697
17000.000000 62.290 -74.6211
17250.000000 61.273 -57.3293
17500.000000 60.781 -39.1279
17750.000000 60.833 -21.0498
18000.000000 61.399 -4.7348
18250.000000 62.296 8.3377
18500.000000 63.295 18.0345
18750.000000 64.331 25.0199
19000.000000 65.409 28.3936
19250.000000 66.201 26.4530
19500.000000 66.181 20.4034
19750.000000 65.220 14.4825
20000.000000 64.169 12.0549
