* Measurement data measured by REW V5.30.9
* Source: Headset (Odo By VECLAN.COM), MICROPHONE (Master Volume), L, volume: 0.250
* Format: 512k Log Swept Sine, 1 sweep at -12.0 dBFS with no timing reference
* Dated: 02 1, 25 2:09:13 PM
* REW Settings:
*  C-weighting compensation: Off
*  Target level: 75.0 dB
* Note: ; 
* Measurement: pr3 a01
* Smoothing: 1/24 octave
* Frequency Step: 1/48 octave
* Start Frequency: 1.000 Hz
*
* Freq(Hz)	SPL(dB)	Phase(degrees)
1.000000	57.169	-101.4195
1.015000	57.549	-102.8795
1.030000	57.924	-104.3550
1.044000	58.269	-105.7503
1.060000	58.657	-107.3707
1.075000	59.015	-108.9183
1.090000	59.367	-110.4946
1.106000	59.736	-112.1953
1.120000	60.053	-113.6738
1.138000	60.453	-115.5378
1.150000	60.714	-116.7531
1.172000	61.182	-118.9202
1.180000	61.350	-119.6883
1.206000	61.883	-122.1129
1.220000	62.163	-123.3745
1.241000	62.576	-125.2134
1.250000	62.750	-125.9833
1.265000	63.036	-127.2440
1.280000	63.318	-128.4792
1.315000	63.961	-131.2780
1.320000	64.051	-131.6699
1.340000	64.408	-133.2217
1.360000	64.760	-134.7534
1.380000	65.106	-136.2716
1.400000	65.448	-137.7824
1.430000	65.954	-140.0479
1.450000	66.287	-141.5651
1.475000	66.699	-143.4658
1.500000	67.101	-145.3431
1.525000	67.493	-147.1798
1.550000	67.874	-148.9738
1.575000	68.247	-150.7267
1.600000	68.610	-152.4423
1.625000	68.965	-154.1250
1.650000	69.313	-155.7804
1.675000	69.653	-157.4144
1.700000	69.987	-159.0334
1.725000	70.316	-160.6436
1.750000	70.638	-162.2517
1.775000	70.956	-163.8640
1.800000	71.270	-165.4867
1.825000	71.580	-167.1248
1.850000	71.885	-168.7769
1.875000	72.183	-170.4331
1.900000	72.475	-172.0839
1.925000	72.761	-173.7229
1.950000	73.040	-175.3455
1.975000	73.314	-176.9491
2.000000	73.582	-178.5322
2.030000	73.897	179.5950
2.060000	74.205	177.7502
2.090000	74.507	175.9301
2.120000	74.804	174.1302
2.140000	74.999	172.9388
2.180000	75.382	170.5673
2.200000	75.570	169.3823
2.240000	75.939	167.0029
2.270000	76.208	165.2144
2.300000	76.470	163.4312
2.330000	76.726	161.6602
2.360000	76.976	159.9063
2.400000	77.301	157.5996
2.430000	77.539	155.8953
2.470000	77.849	153.6571
2.500000	78.077	152.0022
2.540000	78.374	149.8215
2.580000	78.665	147.6543
2.620000	78.947	145.4772
2.650000	79.152	143.8387
2.690000	79.419	141.6575
2.720000	79.614	140.0315
2.760000	79.867	137.8851
2.800000	80.113	135.7700
2.850000	80.412	133.1766
2.900000	80.702	130.6402
2.950000	80.983	128.1413
3.000000	81.253	125.6376
3.040000	81.462	123.6292
3.070000	81.615	122.1265
3.110000	81.813	120.1362
3.150000	82.005	118.1686
3.200000	82.238	115.7518
3.250000	82.464	113.3896
3.300000	82.683	111.0770
3.350000	82.894	108.7804
3.400000	83.097	106.4796
3.450000	83.292	104.1855
3.500000	83.480	101.9135
3.550000	83.662	99.6776
3.600000	83.837	97.4887
3.650000	84.008	95.3502
3.700000	84.172	93.2440
3.750000	84.331	91.1447
3.820000	84.542	88.2184
3.870000	84.687	86.1517
3.950000	84.909	82.9142
4.000000	85.042	80.9456
4.060000	85.197	78.6310
4.120000	85.345	76.3387
4.180000	85.487	74.0624
4.250000	85.646	71.4408
4.310000	85.777	69.2368
4.370000	85.904	67.0820
4.440000	86.047	64.6212
4.500000	86.165	62.5363
4.550000	86.260	60.8133
4.620000	86.389	58.4304
4.680000	86.496	56.4224
4.750000	86.617	54.1266
4.820000	86.735	51.8721
4.870000	86.817	50.2775
4.940000	86.929	48.0659
5.000000	87.021	46.1934
5.080000	87.142	43.7363
5.150000	87.245	41.6236
5.220000	87.345	39.5345
5.300000	87.456	37.1696
5.380000	87.564	34.8338
5.450000	87.655	32.8182
5.520000	87.744	30.8276
5.600000	87.844	28.5717
5.700000	87.963	25.7778
5.800000	88.078	23.0240
5.900000	88.188	20.3132
6.000000	88.292	17.6273
6.080000	88.372	15.4972
6.150000	88.440	13.6536
6.220000	88.505	11.8317
6.300000	88.577	9.7694
6.400000	88.662	7.2117
6.500000	88.743	4.6859
6.600000	88.819	2.2030
6.700000	88.892	-0.2452
6.800000	88.960	-2.6663
6.900000	89.024	-5.0511
7.000000	89.086	-7.3944
7.100000	89.145	-9.7054
7.200000	89.201	-11.9866
7.300000	89.255	-14.2325
7.400000	89.308	-16.4440
7.500000	89.358	-18.6273
7.620000	89.417	-21.2111
7.750000	89.480	-23.9651
7.880000	89.540	-26.6802
8.000000	89.594	-29.1539
8.120000	89.647	-31.5983
8.250000	89.702	-34.2197
8.380000	89.755	-36.8114
8.500000	89.802	-39.1784
8.620000	89.845	-41.5257
8.750000	89.889	-44.0402
8.850000	89.921	-45.9526
9.000000	89.964	-48.7916
9.120000	89.995	-51.0300
9.250000	90.025	-53.4175
9.380000	90.051	-55.7705
9.500000	90.074	-57.9065
9.620000	90.094	-60.0054
9.750000	90.114	-62.2416
9.880000	90.128	-64.4384
10.000000	90.133	-66.4310
10.150000	90.136	-68.8805
10.300000	90.136	-71.2911
10.440000	90.134	-73.5101
10.600000	90.131	-76.0199
10.750000	90.130	-78.3564
10.900000	90.130	-80.6815
11.060000	90.130	-83.1566
11.200000	90.130	-85.3213
11.380000	90.125	-88.0997
11.500000	90.119	-89.9504
11.720000	90.102	-93.3282
11.800000	90.093	-94.5485
12.060000	90.053	-98.4747
12.200000	90.026	-100.5509
12.410000	89.983	-103.6093
12.500000	89.966	-104.8952
12.650000	89.941	-107.0056
12.800000	89.918	-109.0767
13.150000	89.873	-113.7687
13.200000	89.868	-114.4265
13.400000	89.850	-117.0353
13.600000	89.838	-119.6238
13.800000	89.829	-122.2072
14.000000	89.823	-124.7975
14.300000	89.815	-128.7065
14.500000	89.806	-131.3257
14.750000	89.790	-134.5989
15.000000	89.765	-137.8533
15.250000	89.735	-141.0663
15.500000	89.700	-144.2239
15.750000	89.664	-147.3214
16.000000	89.631	-150.3626
16.250000	89.603	-153.3604
16.500000	89.580	-156.3287
16.750000	89.561	-159.2814
17.000000	89.543	-162.2266
17.250000	89.525	-165.1659
17.500000	89.505	-168.0962
17.750000	89.482	-171.0103
18.000000	89.456	-173.9011
18.250000	89.428	-176.7636
18.500000	89.399	-179.5954
18.750000	89.370	177.6022
19.000000	89.340	174.8258
19.250000	89.311	172.0712
19.500000	89.282	169.3350
19.750000	89.253	166.6151
20.000000	89.223	163.9118
20.299999	89.186	160.6907
20.600000	89.149	157.4962
20.900000	89.111	154.3279
21.200001	89.074	151.1826
21.400000	89.049	149.0966
21.799999	88.999	144.9471
22.000000	88.973	142.8850
22.400000	88.918	138.7964
22.700001	88.874	135.7726
23.000000	88.829	132.7935
23.299999	88.787	129.8582
23.600000	88.748	126.9572
24.000000	88.702	123.1149
24.299999	88.671	120.2341
24.700001	88.628	116.3862
25.000000	88.592	113.5051
25.400000	88.540	109.6948
25.799999	88.485	105.9342
26.200001	88.434	102.2062
26.500000	88.399	99.4080
26.900000	88.350	95.6524
27.200001	88.309	92.8227
27.600000	88.244	89.0706
28.000000	88.172	85.3913
28.500000	88.088	80.9119
29.000000	88.027	76.4713
29.500000	87.978	71.9443
30.000000	87.918	67.3376
30.400000	87.852	63.6921
30.700001	87.797	61.0338
31.100000	87.729	57.6051
31.500000	87.678	54.2625
32.000000	87.640	50.0751
32.500000	87.611	45.7862
33.000000	87.568	41.4355
33.500000	87.508	37.1324
34.000000	87.443	32.9301
34.500000	87.385	28.7941
35.000000	87.331	24.6656
35.500000	87.275	20.5269
36.000000	87.214	16.3994
36.500000	87.148	12.3063
37.000000	87.081	8.2516
37.500000	87.015	4.2303
38.200001	86.923	-1.3447
38.700001	86.859	-5.2874
39.500000	86.764	-11.5513
40.000000	86.706	-15.4549
40.599998	86.636	-20.1246
41.200001	86.563	-24.7560
41.799999	86.492	-29.3417
42.500000	86.415	-34.6675
43.099998	86.349	-39.2384
43.700001	86.277	-43.7954
44.400002	86.190	-49.0448
45.000000	86.119	-53.4858
45.500000	86.065	-57.1720
46.200001	85.992	-62.3404
46.799999	85.926	-66.7689
47.500000	85.846	-71.9028
48.200001	85.767	-76.9948
48.700001	85.712	-80.6196
49.400002	85.635	-85.6880
50.000000	85.566	-90.0099
50.799999	85.476	-95.7070
51.500000	85.404	-100.6425
52.200001	85.336	-105.5543
53.000000	85.257	-111.1284
53.799999	85.179	-116.6398
54.500000	85.112	-121.4026
55.200001	85.054	-126.1503
56.000000	84.994	-131.6642
57.000000	84.895	-138.6537
58.000000	84.781	-145.5400
59.000000	84.683	-152.3071
60.000000	84.626	-158.9807
60.799999	84.612	-164.4939
61.500000	84.567	-169.4539
62.200001	84.474	-174.2218
63.000000	84.359	-179.1895
64.000000	84.277	174.9141
65.000000	84.196	168.7993
66.000000	84.059	162.9203
67.000000	84.014	157.2446
68.000000	84.021	150.6157
69.000000	83.900	143.5447
70.000000	83.749	136.9226
71.000000	83.638	130.4778
72.000000	83.547	124.2015
73.000000	83.492	118.0101
74.000000	83.431	111.7908
75.000000	83.352	105.7067
76.199997	83.264	98.5737
77.500000	83.188	90.7639
78.800003	83.102	82.8785
80.000000	83.029	75.6555
81.199997	82.972	68.4648
82.500000	82.911	60.5654
83.800003	82.804	52.7493
85.000000	82.705	45.7715
86.199997	82.617	38.8475
87.500000	82.532	31.4210
88.500000	82.477	25.7128
90.000000	82.392	17.1565
91.199997	82.325	10.3345
92.500000	82.248	2.9164
93.800003	82.166	-4.4768
95.000000	82.097	-11.2837
96.199997	82.029	-18.0833
97.500000	81.953	-25.3641
98.800003	81.881	-32.5375
100.000000	81.818	-39.1317
101.500000	81.734	-47.3354
103.000000	81.654	-55.5138
104.400002	81.580	-63.1288
106.000000	81.498	-71.7720
107.500000	81.421	-79.8464
109.000000	81.344	-87.8911
110.599998	81.264	-96.4642
112.000000	81.197	-103.9147
113.800003	81.118	-113.3209
115.000000	81.073	-119.5171
117.199997	80.978	-130.9463
118.000000	80.936	-135.1172
120.599998	80.817	-148.5054
122.000000	80.799	-155.7280
124.099998	80.755	-166.6896
125.000000	80.715	-171.3068
126.500000	80.644	-178.8384
128.000000	80.579	173.6665
131.500000	80.427	156.1899
132.000000	80.406	153.7224
134.000000	80.338	143.8844
136.000000	80.284	134.0220
138.000000	80.241	124.1825
140.000000	80.202	114.3740
143.000000	80.109	99.7245
145.000000	80.041	90.0128
147.500000	79.961	77.9445
150.000000	79.893	66.0726
152.500000	79.825	54.2450
155.000000	79.759	42.4681
157.500000	79.701	30.7582
160.000000	79.636	19.1235
162.500000	79.562	7.5847
165.000000	79.485	-3.8947
167.500000	79.409	-15.2910
170.000000	79.337	-26.6331
172.500000	79.269	-37.9541
175.000000	79.205	-49.1721
177.500000	79.142	-60.2484
180.000000	79.074	-71.3142
182.500000	79.007	-82.5483
185.000000	78.936	-93.7683
187.500000	78.868	-104.6250
190.000000	78.812	-115.3217
192.500000	78.751	-126.0712
195.000000	78.691	-136.7979
197.500000	78.636	-147.4517
200.000000	78.584	-158.0742
203.000000	78.531	-170.7656
206.000000	78.492	176.6523
209.000000	78.458	164.0900
212.000000	78.421	151.5662
214.000000	78.393	143.2701
218.000000	78.328	126.7670
220.000000	78.297	118.5638
224.000000	78.242	102.3108
227.000000	78.197	90.1874
230.000000	78.155	78.1245
233.000000	78.120	66.1454
236.000000	78.095	54.1925
240.000000	78.070	38.3738
243.000000	78.017	26.6484
247.000000	77.933	11.0804
250.000000	77.899	-0.5803
254.000000	77.862	-16.0131
258.000000	77.815	-31.3127
262.000000	77.767	-46.5018
265.000000	77.732	-57.8180
269.000000	77.686	-72.8225
272.000000	77.654	-84.0283
276.000000	77.613	-98.8691
280.000000	77.574	-113.5901
285.000000	77.527	-131.8638
290.000000	77.480	-150.0195
295.000000	77.443	-168.0332
300.000000	77.411	174.0894
304.000000	77.376	159.8804
307.000000	77.349	149.2827
311.000000	77.315	135.2356
315.000000	77.282	121.2744
320.000000	77.243	103.9448
325.000000	77.206	86.7566
330.000000	77.170	69.7104
335.000000	77.137	52.7910
340.000000	77.103	36.0085
345.000000	77.070	19.3330
350.000000	77.040	2.7734
355.000000	77.008	-13.6641
360.000000	76.973	-30.0107
365.000000	76.948	-46.1934
370.000000	76.927	-62.2319
375.000000	76.902	-78.1792
382.000000	76.870	-100.3140
387.000000	76.847	-116.0066
395.000000	76.811	-140.9084
400.000000	76.791	-156.3252
406.000000	76.767	-174.6902
412.000000	76.744	167.0798
418.000000	76.720	148.9895
425.000000	76.694	128.1133
431.000000	76.673	110.4016
437.000000	76.653	92.8118
444.000000	76.628	72.4766
450.000000	76.607	55.1765
455.000000	76.595	40.8535
462.000000	76.579	20.9773
468.000000	76.565	4.0850
475.000000	76.550	-15.4922
482.000000	76.536	-34.8838
487.000000	76.523	-48.5547
494.000000	76.506	-67.5771
500.000000	76.494	-83.7771
508.000000	76.480	-105.2153
515.000000	76.471	-123.8232
522.000000	76.460	-142.2451
530.000000	76.447	-163.0815
538.000000	76.435	176.2644
545.000000	76.429	158.3608
552.000000	76.422	140.6416
560.000000	76.413	120.5630
570.000000	76.406	95.7200
580.000000	76.401	71.1785
590.000000	76.393	46.9634
600.000000	76.384	23.0776
608.000000	76.386	4.1038
615.000000	76.388	-12.3428
622.000000	76.389	-28.6409
630.000000	76.391	-47.1104
640.000000	76.395	-69.9373
650.000000	76.398	-92.4666
660.000000	76.401	-114.7197
670.000000	76.410	-136.8020
680.000000	76.420	-158.6082
690.000000	76.429	179.8569
700.000000	76.440	158.5615
710.000000	76.451	137.5339
720.000000	76.467	116.7583
730.000000	76.491	96.2395
740.000000	76.514	75.9736
750.000000	76.534	55.9238
762.000000	76.560	32.1338
775.000000	76.597	6.7236
788.000000	76.632	-18.3105
800.000000	76.666	-41.1064
812.000000	76.707	-63.5710
825.000000	76.749	-87.5493
838.000000	76.796	-111.2239
850.000000	76.846	-132.7578
862.000000	76.896	-154.0056
875.000000	76.954	-176.7097
885.000000	77.005	166.0527
900.000000	77.086	140.5488
912.000000	77.149	120.4282
925.000000	77.222	98.9111
938.000000	77.302	77.7007
950.000000	77.379	58.3799
962.000000	77.455	39.2944
975.000000	77.540	18.8721
988.000000	77.634	-1.2532
1000.000000	77.722	-19.5747
1015.000000	77.830	-42.1809
1030.000000	77.941	-64.4875
1044.000000	78.052	-84.9888
1060.000000	78.178	-108.0493
1075.000000	78.291	-129.3459
1090.000000	78.402	-150.3279
1106.000000	78.525	-172.3259
1120.000000	78.630	168.7439
1138.000000	78.756	144.7708
1150.000000	78.840	129.0393
1172.000000	79.000	100.8010
1180.000000	79.056	90.7053
1206.000000	79.228	58.4482
1220.000000	79.320	41.4717
1241.000000	79.464	16.5889
1250.000000	79.524	6.1108
1265.000000	79.619	-11.1650
1280.000000	79.714	-28.1992
1315.000000	79.942	-66.7695
1320.000000	79.974	-72.1450
1340.000000	80.098	-93.3237
1360.000000	80.221	-113.9707
1380.000000	80.349	-134.0596
1400.000000	80.478	-153.6558
1430.000000	80.669	177.7598
1450.000000	80.806	159.3296
1475.000000	80.984	136.9722
1500.000000	81.157	115.2373
1525.000000	81.334	94.1523
1550.000000	81.522	73.7954
1575.000000	81.713	54.0742
1600.000000	81.912	34.9810
1625.000000	82.128	16.5273
1650.000000	82.348	-1.4316
1675.000000	82.580	-18.9556
1700.000000	82.814	-36.1021
1725.000000	83.032	-52.9746
1750.000000	83.215	-69.5322
1775.000000	83.325	-85.7329
1800.000000	83.325	-101.4263
1825.000000	83.214	-116.2329
1850.000000	83.023	-129.8115
1875.000000	82.802	-142.0698
1900.000000	82.621	-153.0684
1925.000000	82.525	-162.9912
1950.000000	82.525	-172.1367
1975.000000	82.614	179.2578
2000.000000	82.775	171.0259
2030.000000	83.020	161.4644
2060.000000	83.287	152.2681
2090.000000	83.555	143.5156
2120.000000	83.815	135.1982
2140.000000	83.984	129.9287
2180.000000	84.314	120.2026
2200.000000	84.474	115.7505
2240.000000	84.772	107.5962
2270.000000	84.987	102.1865
2300.000000	85.198	97.3682
2330.000000	85.399	93.0708
2360.000000	85.592	89.3042
2400.000000	85.832	85.1011
2430.000000	85.990	82.5762
2470.000000	86.168	80.1611
2500.000000	86.278	79.1206
2540.000000	86.387	78.6343
2580.000000	86.465	79.2021
2620.000000	86.531	80.9805
2650.000000	86.577	83.0522
2690.000000	86.618	86.6104
2720.000000	86.629	89.8999
2760.000000	86.624	95.2856
2800.000000	86.604	101.8242
2850.000000	86.542	111.3076
2900.000000	86.443	122.3857
2950.000000	86.331	135.3574
3000.000000	86.196	149.8628
3040.000000	86.078	162.4878
3070.000000	85.990	172.6377
3110.000000	85.879	-172.9097
3150.000000	85.770	-157.5688
3200.000000	85.628	-137.3721
3250.000000	85.467	-116.0801
3300.000000	85.248	-93.7290
3350.000000	84.891	-70.3945
3400.000000	84.388	-45.2246
3450.000000	83.819	-17.2012
3500.000000	83.309	14.0352
3550.000000	82.970	47.5586
3600.000000	82.801	81.8506
3650.000000	82.715	116.7124
3700.000000	82.679	152.6367
3750.000000	82.700	-170.5312
3820.000000	82.778	-117.7417
3870.000000	82.831	-79.1606
3950.000000	82.908	-15.2881
4000.000000	82.974	26.2632
4060.000000	83.055	76.9370
4120.000000	83.131	128.5928
4180.000000	83.211	-178.1736
4250.000000	83.320	-114.6177
4310.000000	83.394	-59.8179
4370.000000	83.361	-5.2710
4440.000000	83.031	58.3169
4500.000000	82.426	114.6545
4550.000000	81.782	165.5085
4620.000000	80.980	-115.3091
4680.000000	80.596	-42.6982
4750.000000	80.467	41.0320
4820.000000	80.498	123.5417
4870.000000	80.540	-177.2888
4940.000000	80.556	-94.5601
5000.000000	80.506	-22.6470
5080.000000	80.420	77.7087
5150.000000	80.404	168.3357
5220.000000	80.425	-101.0659
5300.000000	80.451	2.8713
5380.000000	80.443	109.0476
5450.000000	80.403	-155.7195
5520.000000	80.313	-60.5110
5600.000000	80.160	50.1858
5700.000000	79.933	-166.1772
5800.000000	79.607	-22.5776
5900.000000	79.034	119.8206
6000.000000	78.397	-84.0791
6080.000000	78.087	50.1526
6150.000000	77.982	163.7057
6220.000000	77.994	-81.8302
6300.000000	78.109	49.0627
6400.000000	78.344	-143.1818
6500.000000	78.674	-14.4586
6600.000000	79.137	-140.8945
6700.000000	79.035	-115.1303
6800.000000	78.742	-109.0203
6900.000000	78.785	-107.5283
7000.000000	79.054	-106.5415
7100.000000	79.484	-105.7740
7200.000000	79.990	-106.0525
7300.000000	80.441	-107.8958
7400.000000	80.749	-110.0285
7500.000000	81.006	-111.3071
7620.000000	81.510	-112.5650
7750.000000	82.328	-115.6216
7880.000000	83.077	-122.0842
8000.000000	83.415	-130.0441
8120.000000	83.358	-138.0737
8250.000000	82.942	-146.1876
8380.000000	82.253	-152.9084
8500.000000	81.504	-156.9362
8620.000000	80.827	-159.6758
8750.000000	80.240	-162.6039
8850.000000	79.813	-164.9916
9000.000000	79.030	-168.6445
9120.000000	78.205	-170.6006
9250.000000	77.303	-169.9749
9380.000000	76.686	-167.5281
9500.000000	76.380	-165.7128
9620.000000	76.219	-164.4492
9750.000000	76.164	-163.1577
9880.000000	76.253	-162.4811
10000.000000	76.433	-162.9847
10150.000000	76.682	-164.9688
10300.000000	76.855	-168.1304
10440.000000	76.928	-171.7305
10600.000000	76.896	-176.0182
10750.000000	76.729	-179.9709
10900.000000	76.397	175.6821
11060.000000	75.853	171.2122
11200.000000	75.237	168.4296
11380.000000	74.374	166.9565
11500.000000	73.829	166.7015
11720.000000	72.990	167.2339
11800.000000	72.740	167.8591
12060.000000	72.149	171.0640
12200.000000	71.971	172.4565
12410.000000	71.843	173.9121
12500.000000	71.815	174.5116
12650.000000	71.789	175.6245
12800.000000	71.798	176.6028
13150.000000	72.104	178.0688
13200.000000	72.177	178.2675
13400.000000	72.507	179.0156
13600.000000	72.906	178.6919
13800.000000	73.441	177.2075
14000.000000	74.038	174.3176
14300.000000	74.726	166.9326
14500.000000	75.061	161.1890
14750.000000	75.285	151.7291
15000.000000	74.899	140.9197
15250.000000	73.904	133.3000
15500.000000	72.767	128.9280
15750.000000	71.824	126.7119
16000.000000	71.148	125.8638
16250.000000	70.725	125.5876
16500.000000	70.436	129.2395
16750.000000	70.443	149.5061
17000.000000	71.055	143.9454
17250.000000	71.664	-117.5443
17500.000000	72.079	11.0192
17750.000000	72.192	-9.2633
18000.000000	71.888	166.7377
18250.000000	71.288	47.3139
18500.000000	70.529	-108.7726
18750.000000	69.735	161.9149
19000.000000	68.983	28.6644
19250.000000	68.338	-79.1055
19500.000000	67.829	154.0774
19750.000000	67.462	38.4468
20000.000000	67.262	-34.3046
