* Measurement data measured by REW V5.31.3
* Source: Headset (Odo By VECLAN.COM), MICROPHONE (Master Volume), R, volume: 0.250
* Format: 1M Log Swept Sine, 1 sweep at -12.0 dBFS with no timing reference
* Dated: 02 1, 25 3:11:12 PM
* REW Settings:
*  C-weighting compensation: Off
*  Target level: 75.0 dB
* Note: ; 
* Measurement: pr3 fatfreq imp L
* Smoothing: 1/24 octave
* Frequency Step: 1/48 octave
* Start Frequency: 1.000 Hz
*
* Freq(Hz) SPL(dB) Phase(degrees)
1.000000 49.272 -48.3784
1.015000 49.967 -49.5781
1.030000 50.635 -50.7893
1.044000 51.230 -51.9337
1.060000 51.871 -53.2612
1.075000 52.428 -54.5274
1.090000 52.940 -55.8139
1.106000 53.440 -57.1929
1.120000 53.851 -58.3766
1.138000 54.354 -59.8476
1.150000 54.675 -60.7962
1.172000 55.236 -62.4734
1.180000 55.432 -63.0649
1.206000 56.040 -64.9267
1.220000 56.351 -65.8948
1.241000 56.799 -67.3082
1.250000 56.984 -67.9014
1.265000 57.285 -68.8753
1.280000 57.578 -69.8332
1.315000 58.230 -72.0186
1.320000 58.321 -72.3264
1.340000 58.678 -73.5495
1.360000 59.028 -74.7630
1.380000 59.374 -75.9711
1.400000 59.717 -77.1777
1.430000 60.235 -78.9922
1.450000 60.584 -80.2081
1.475000 61.023 -81.7237
1.500000 61.455 -83.1983
1.525000 61.874 -84.6192
1.550000 62.280 -85.9935
1.575000 62.675 -87.3301
1.600000 63.059 -88.6379
1.625000 63.434 -89.9248
1.650000 63.800 -91.1983
1.675000 64.158 -92.4652
1.700000 64.509 -93.7319
1.725000 64.854 -95.0040
1.750000 65.195 -96.2866
1.775000 65.531 -97.5845
1.800000 65.864 -98.9014
1.825000 66.194 -100.2380
1.850000 66.521 -101.5831
1.875000 66.841 -102.9184
1.900000 67.155 -104.2366
1.925000 67.462 -105.5366
1.950000 67.764 -106.8191
1.975000 68.060 -108.0852
2.000000 68.350 -109.3368
2.030000 68.692 -110.8225
2.060000 69.027 -112.2944
2.090000 69.357 -113.7572
2.120000 69.681 -115.2155
2.140000 69.895 -116.1878
2.180000 70.316 -118.1381
2.200000 70.524 -119.1169
2.240000 70.932 -121.0716
2.270000 71.231 -122.5259
2.300000 71.523 -123.9663
2.330000 71.810 -125.3915
2.360000 72.091 -126.8011
2.400000 72.458 -128.6577
2.430000 72.728 -130.0347
2.470000 73.081 -131.8539
2.500000 73.340 -133.2088
2.540000 73.681 -135.0084
2.580000 74.015 -136.8058
2.620000 74.340 -138.6020
2.650000 74.579 -139.9442
2.690000 74.890 -141.7218
2.720000 75.119 -143.0432
2.760000 75.417 -144.7867
2.800000 75.708 -146.5083
2.850000 76.064 -148.6301
2.900000 76.410 -150.7222
2.950000 76.748 -152.7962
3.000000 77.075 -154.8667
3.040000 77.330 -156.5177
3.070000 77.517 -157.7489
3.110000 77.760 -159.3767
3.150000 77.998 -160.9852
3.200000 78.289 -162.9651
3.250000 78.572 -164.9089
3.300000 78.847 -166.8220
3.350000 79.115 -168.7221
3.400000 79.374 -170.6170
3.450000 79.625 -172.4987
3.500000 79.869 -174.3578
3.550000 80.106 -176.1869
3.600000 80.337 -177.9806
3.650000 80.562 -179.7386
3.700000 80.782 178.5274
3.750000 80.994 176.8033
3.820000 81.280 174.4100
3.870000 81.478 172.7248
3.950000 81.783 170.0883
4.000000 81.968 168.4839
4.060000 82.184 166.5961
4.120000 82.393 164.7304
4.180000 82.594 162.8843
4.250000 82.821 160.7653
4.310000 83.010 158.9881
4.370000 83.193 157.2524
4.440000 83.401 155.2726
4.500000 83.574 153.6001
4.550000 83.713 152.2224
4.620000 83.903 150.3234
4.680000 84.062 148.7285
4.750000 84.242 146.9099
4.820000 84.417 145.1294
4.870000 84.539 143.8744
4.940000 84.705 142.1404
5.000000 84.843 140.6785
5.080000 85.023 138.7684
5.150000 85.176 137.1335
5.220000 85.326 135.5243
5.300000 85.491 133.7125
5.380000 85.651 131.9334
5.450000 85.787 130.4068
5.520000 85.920 128.9069
5.600000 86.067 127.2175
5.700000 86.245 125.1410
5.800000 86.415 123.1111
5.900000 86.579 121.1301
6.000000 86.736 119.1856
6.080000 86.857 117.6566
6.150000 86.959 116.3421
6.220000 87.059 115.0512
6.300000 87.169 113.6011
6.400000 87.301 111.8195
6.500000 87.427 110.0770
6.600000 87.548 108.3796
6.700000 87.665 106.7228
6.800000 87.777 105.1015
6.900000 87.884 103.5184
7.000000 87.989 101.9753
7.100000 88.089 100.4676
7.200000 88.187 98.9923
7.300000 88.282 97.5491
7.400000 88.374 96.1368
7.500000 88.464 94.7522
7.620000 88.569 93.1240
7.750000 88.679 91.3974
7.880000 88.785 89.7054
8.000000 88.879 88.1723
8.120000 88.970 86.6639
8.250000 89.064 85.0546
8.380000 89.154 83.4731
8.500000 89.231 82.0378
8.620000 89.305 80.6237
8.750000 89.380 79.1201
8.850000 89.434 77.9855
9.000000 89.509 76.3160
9.120000 89.565 75.0123
9.250000 89.621 73.6342
9.380000 89.674 72.2894
9.500000 89.719 71.0782
9.620000 89.763 69.8966
9.750000 89.807 68.6470
9.880000 89.844 67.4269
10.000000 89.870 66.3254
10.150000 89.894 64.9789
10.300000 89.912 63.6617
10.440000 89.923 62.4563
10.600000 89.933 61.1053
10.750000 89.939 59.8626
10.900000 89.943 58.6430
11.060000 89.944 57.3700
11.200000 89.943 56.2798
11.380000 89.938 54.9143
11.500000 89.933 54.0278
11.720000 89.921 52.4508
11.800000 89.917 51.8929
12.060000 89.902 50.1309
12.200000 89.895 49.2088
12.410000 89.888 47.8520
12.500000 89.889 47.2763
12.650000 89.895 46.3228
12.800000 89.903 45.3736
13.150000 89.920 43.1685
13.200000 89.921 42.8558
13.400000 89.923 41.6142
13.600000 89.919 40.4006
13.800000 89.909 39.2275
14.000000 89.895 38.1089
14.300000 89.870 36.5463
14.500000 89.857 35.5798
14.750000 89.848 34.4336
15.000000 89.849 33.3238
15.250000 89.860 32.2081
15.500000 89.875 31.0562
15.750000 89.890 29.8575
16.000000 89.898 28.6224
16.250000 89.895 27.3836
16.500000 89.881 26.1788
16.750000 89.856 25.0458
17.000000 89.826 24.0063
17.250000 89.797 23.0615
17.500000 89.774 22.1937
17.750000 89.759 21.3701
18.000000 89.752 20.5582
18.250000 89.751 19.7326
18.500000 89.749 18.8837
18.750000 89.744 18.0178
19.000000 89.734 17.1503
19.250000 89.717 16.3010
19.500000 89.697 15.4836
19.750000 89.675 14.7032
20.000000 89.653 13.9559
20.299999 89.630 13.0884
20.600000 89.608 12.2360
20.900000 89.586 11.3888
21.200001 89.563 10.5473
21.400000 89.546 9.9930
21.799999 89.511 8.9080
22.000000 89.493 8.3770
22.400000 89.457 7.3297
22.700001 89.430 6.5488
23.000000 89.402 5.7704
23.299999 89.370 5.0016
23.600000 89.335 4.2546
24.000000 89.285 3.3100
24.299999 89.249 2.6425
24.700001 89.205 1.7932
25.000000 89.175 1.1716
25.400000 89.139 0.3462
25.799999 89.104 -0.4809
26.200001 89.067 -1.3047
26.500000 89.037 -1.9150
26.900000 88.995 -2.7106
27.200001 88.961 -3.2876
27.600000 88.914 -4.0211
28.000000 88.866 -4.7101
28.500000 88.812 -5.5289
29.000000 88.764 -6.3481
29.500000 88.714 -7.1969
30.000000 88.655 -8.0466
30.400000 88.603 -8.6919
30.700001 88.564 -9.1489
31.100000 88.515 -9.7350
31.500000 88.469 -10.3190
32.000000 88.412 -11.0668
32.500000 88.349 -11.8077
33.000000 88.282 -12.4907
33.500000 88.220 -13.1053
34.000000 88.169 -13.6988
34.500000 88.125 -14.3260
35.000000 88.078 -14.9913
35.500000 88.024 -15.6487
36.000000 87.966 -16.2563
36.500000 87.912 -16.8204
37.000000 87.861 -17.3781
37.500000 87.808 -17.9417
38.200001 87.725 -18.6726
38.700001 87.670 -19.1276
39.500000 87.600 -19.8879
40.000000 87.553 -20.4484
40.599998 87.477 -21.1108
41.200001 87.393 -21.6370
41.799999 87.325 -22.0739
42.500000 87.260 -22.6559
43.099998 87.196 -23.2026
43.700001 87.126 -23.6846
44.400002 87.059 -24.1964
45.000000 87.009 -24.7084
45.500000 86.960 -25.1788
46.200001 86.876 -25.7794
46.799999 86.806 -26.2031
47.500000 86.734 -26.6718
48.200001 86.663 -27.1445
48.700001 86.612 -27.4578
49.400002 86.546 -27.8647
50.000000 86.495 -28.2245
50.799999 86.425 -28.7310
51.500000 86.357 -29.1509
52.200001 86.290 -29.5319
53.000000 86.216 -29.9425
53.799999 86.145 -30.3616
54.500000 86.080 -30.7572
55.200001 86.006 -31.1342
56.000000 85.924 -31.4664
57.000000 85.849 -31.8737
58.000000 85.776 -32.4851
59.000000 85.673 -33.0936
60.000000 85.561 -33.5147
60.799999 85.480 -33.7504
61.500000 85.417 -33.9325
62.200001 85.358 -34.1337
63.000000 85.286 -34.3687
64.000000 85.199 -34.5974
65.000000 85.122 -34.9156
66.000000 85.023 -35.2827
67.000000 84.927 -35.4357
68.000000 84.868 -35.6385
69.000000 84.806 -35.9689
70.000000 84.745 -36.2641
71.000000 84.692 -36.5788
72.000000 84.637 -36.9167
73.000000 84.577 -37.2690
74.000000 84.506 -37.5942
75.000000 84.433 -37.8441
76.199997 84.354 -38.1081
77.500000 84.270 -38.4076
78.800003 84.192 -38.6867
80.000000 84.125 -38.9945
81.199997 84.047 -39.3239
82.500000 83.952 -39.5948
83.800003 83.864 -39.7292
85.000000 83.798 -39.8809
86.199997 83.727 -40.1085
87.500000 83.643 -40.3268
88.500000 83.578 -40.4661
90.000000 83.489 -40.6211
91.199997 83.429 -40.7587
92.500000 83.364 -40.9622
93.800003 83.293 -41.1638
95.000000 83.226 -41.3198
96.199997 83.159 -41.4603
97.500000 83.085 -41.6000
98.800003 83.012 -41.7115
100.000000 82.946 -41.8090
101.500000 82.865 -41.9258
103.000000 82.787 -42.0463
104.400002 82.715 -42.1646
106.000000 82.636 -42.2981
107.500000 82.564 -42.4119
109.000000 82.496 -42.5046
110.599998 82.423 -42.5861
112.000000 82.359 -42.6426
113.800003 82.277 -42.7207
115.000000 82.221 -42.7716
117.199997 82.126 -42.8434
118.000000 82.093 -42.8585
120.599998 81.991 -42.9072
122.000000 81.930 -42.9285
124.099998 81.840 -42.9468
125.000000 81.805 -42.9567
126.500000 81.757 -42.9587
128.000000 81.721 -43.0104
131.500000 81.602 -43.0018
132.000000 81.582 -42.9542
134.000000 81.511 -42.7228
136.000000 81.457 -42.7439
138.000000 81.383 -42.9329
140.000000 81.303 -42.9889
143.000000 81.187 -42.8273
145.000000 81.105 -42.6214
147.500000 81.018 -42.2731
150.000000 80.971 -41.8090
152.500000 80.967 -41.3370
155.000000 80.981 -41.0581
157.500000 81.003 -41.0540
160.000000 81.010 -41.3394
162.500000 80.985 -41.6620
165.000000 80.924 -41.9574
167.500000 80.843 -42.1681
170.000000 80.764 -42.3359
172.500000 80.692 -42.4520
175.000000 80.622 -42.5148
177.500000 80.546 -42.5244
180.000000 80.472 -42.4949
182.500000 80.403 -42.4547
185.000000 80.335 -42.3945
187.500000 80.270 -42.2918
190.000000 80.217 -42.1864
192.500000 80.169 -42.1297
195.000000 80.119 -42.1133
197.500000 80.060 -42.2354
200.000000 79.998 -42.4202
203.000000 79.946 -42.4109
206.000000 79.916 -42.3492
209.000000 79.868 -42.3279
212.000000 79.813 -42.3245
214.000000 79.778 -42.3113
218.000000 79.711 -42.2388
220.000000 79.679 -42.2084
224.000000 79.623 -42.1508
227.000000 79.585 -42.0923
230.000000 79.551 -42.0452
233.000000 79.519 -41.9987
236.000000 79.491 -41.9579
240.000000 79.456 -41.9556
243.000000 79.433 -41.9746
247.000000 79.400 -42.0072
250.000000 79.372 -42.0389
254.000000 79.331 -42.0701
258.000000 79.287 -42.0859
262.000000 79.244 -42.1069
265.000000 79.212 -42.1206
269.000000 79.172 -42.1416
272.000000 79.141 -42.1570
276.000000 79.096 -42.1610
280.000000 79.053 -42.1430
285.000000 79.006 -42.1184
290.000000 78.963 -42.1276
295.000000 78.922 -42.1142
300.000000 78.882 -42.0787
304.000000 78.851 -42.0571
307.000000 78.830 -42.0428
311.000000 78.802 -42.0243
315.000000 78.777 -42.0027
320.000000 78.749 -41.9761
325.000000 78.725 -41.9501
330.000000 78.703 -41.9420
335.000000 78.683 -41.9550
340.000000 78.662 -41.9904
345.000000 78.640 -42.0350
350.000000 78.615 -42.0859
355.000000 78.590 -42.1359
360.000000 78.565 -42.2117
365.000000 78.538 -42.2724
370.000000 78.512 -42.3083
375.000000 78.488 -42.3276
382.000000 78.457 -42.3569
387.000000 78.437 -42.3937
395.000000 78.407 -42.4473
400.000000 78.389 -42.4818
406.000000 78.366 -42.5150
412.000000 78.345 -42.5436
418.000000 78.326 -42.5862
425.000000 78.305 -42.6306
431.000000 78.288 -42.6539
437.000000 78.275 -42.6863
444.000000 78.259 -42.7480
450.000000 78.241 -42.7802
455.000000 78.222 -42.7825
462.000000 78.192 -42.7878
468.000000 78.170 -42.8123
475.000000 78.149 -42.8485
482.000000 78.132 -42.8754
487.000000 78.123 -42.9017
494.000000 78.111 -42.9377
500.000000 78.102 -42.9664
508.000000 78.089 -42.9954
515.000000 78.079 -43.0229
522.000000 78.069 -43.0490
530.000000 78.060 -43.0691
538.000000 78.052 -43.0907
545.000000 78.045 -43.1100
552.000000 78.037 -43.1287
560.000000 78.030 -43.1541
570.000000 78.024 -43.1783
580.000000 78.019 -43.1853
590.000000 78.015 -43.1962
600.000000 78.012 -43.2026
608.000000 78.011 -43.2106
615.000000 78.011 -43.2183
622.000000 78.012 -43.2290
630.000000 78.014 -43.2381
640.000000 78.019 -43.2386
650.000000 78.027 -43.2320
660.000000 78.034 -43.2285
670.000000 78.043 -43.2186
680.000000 78.052 -43.2148
690.000000 78.063 -43.2007
700.000000 78.074 -43.1891
710.000000 78.088 -43.1688
720.000000 78.104 -43.1414
730.000000 78.123 -43.1207
740.000000 78.143 -43.1005
750.000000 78.166 -43.0754
762.000000 78.195 -43.0406
775.000000 78.230 -42.9969
788.000000 78.268 -42.9538
800.000000 78.306 -42.9090
812.000000 78.346 -42.8657
825.000000 78.390 -42.8145
838.000000 78.437 -42.7814
850.000000 78.483 -42.7417
862.000000 78.534 -42.7036
875.000000 78.595 -42.6786
885.000000 78.647 -42.6682
900.000000 78.730 -42.6606
912.000000 78.798 -42.6654
925.000000 78.874 -42.6925
938.000000 78.951 -42.7306
950.000000 79.025 -42.7841
962.000000 79.101 -42.8508
975.000000 79.185 -42.9445
988.000000 79.272 -43.0601
1000.000000 79.357 -43.1914
1015.000000 79.466 -43.3912
1030.000000 79.578 -43.6217
1044.000000 79.683 -43.8666
1060.000000 79.805 -44.1860
1075.000000 79.920 -44.5294
1090.000000 80.034 -44.9122
1106.000000 80.153 -45.3629
1120.000000 80.255 -45.7872
1138.000000 80.380 -46.3796
1150.000000 80.459 -46.7903
1172.000000 80.597 -47.5662
1180.000000 80.645 -47.8524
1206.000000 80.792 -48.7596
1220.000000 80.870 -49.2290
1241.000000 80.986 -49.8996
1250.000000 81.036 -50.1750
1265.000000 81.120 -50.6250
1280.000000 81.207 -51.0779
1315.000000 81.422 -52.1733
1320.000000 81.454 -52.3347
1340.000000 81.582 -52.9884
1360.000000 81.711 -53.6533
1380.000000 81.839 -54.3321
1400.000000 81.963 -55.0117
1430.000000 82.145 -56.0291
1450.000000 82.271 -56.7168
1475.000000 82.433 -57.5978
1500.000000 82.601 -58.5028
1525.000000 82.768 -59.4480
1550.000000 82.936 -60.4456
1575.000000 83.104 -61.4952
1600.000000 83.273 -62.5973
1625.000000 83.440 -63.7457
1650.000000 83.607 -64.9614
1675.000000 83.776 -66.2977
1700.000000 83.944 -67.8088
1725.000000 84.094 -69.5349
1750.000000 84.195 -71.4508
1775.000000 84.218 -73.3876
1800.000000 84.163 -75.0079
1825.000000 84.076 -75.9834
1850.000000 84.023 -76.2849
1875.000000 84.045 -76.2219
1900.000000 84.150 -76.1740
1925.000000 84.314 -76.3369
1950.000000 84.505 -76.7335
1975.000000 84.698 -77.3224
2000.000000 84.882 -78.0314
2030.000000 85.089 -78.9141
2060.000000 85.297 -79.7430
2090.000000 85.539 -80.5259
2120.000000 85.837 -81.4426
2140.000000 86.061 -82.2379
2180.000000 86.519 -84.4158
2200.000000 86.732 -85.7539
2240.000000 87.110 -88.6783
2270.000000 87.357 -90.9352
2300.000000 87.588 -93.2446
2330.000000 87.809 -95.6606
2360.000000 88.018 -98.2194
2400.000000 88.273 -101.8040
2430.000000 88.444 -104.5906
2470.000000 88.647 -108.4459
2500.000000 88.779 -111.4720
2540.000000 88.923 -115.7090
2580.000000 89.015 -120.2316
2620.000000 89.007 -125.1099
2650.000000 88.890 -128.8373
2690.000000 88.567 -133.2195
2720.000000 88.257 -135.6184
2760.000000 87.892 -137.6888
2800.000000 87.655 -139.2179
2850.000000 87.484 -141.2184
2900.000000 87.364 -143.4598
2950.000000 87.260 -145.9003
3000.000000 87.146 -148.6615
3040.000000 87.022 -151.1215
3070.000000 86.895 -153.0414
3110.000000 86.669 -155.6053
3150.000000 86.355 -157.9882
3200.000000 85.839 -159.9346
3250.000000 85.365 -160.1132
3300.000000 85.110 -159.6149
3350.000000 85.006 -159.6285
3400.000000 84.940 -160.1936
3450.000000 84.871 -161.0511
3500.000000 84.793 -162.0794
3550.000000 84.698 -163.2529
3600.000000 84.570 -164.4527
3650.000000 84.417 -165.4205
3700.000000 84.279 -166.1069
3750.000000 84.175 -166.7073
3820.000000 84.067 -167.6047
3870.000000 84.006 -168.3051
3950.000000 83.930 -169.5664
4000.000000 83.897 -170.5010
4060.000000 83.863 -171.8690
4120.000000 83.783 -173.5870
4180.000000 83.567 -175.2810
4250.000000 83.190 -175.5751
4310.000000 83.050 -174.3170
4370.000000 83.146 -173.4659
4440.000000 83.345 -173.7043
4500.000000 83.504 -174.5785
4550.000000 83.621 -175.6202
4620.000000 83.753 -177.5746
4680.000000 83.790 -179.7348
4750.000000 83.666 177.7542
4820.000000 83.443 176.5199
4870.000000 83.371 176.3558
4940.000000 83.443 175.8641
5000.000000 83.567 174.5518
5080.000000 83.664 171.6013
5150.000000 83.639 168.1816
5220.000000 83.461 163.9698
5300.000000 82.879 158.8207
5380.000000 81.828 156.1212
5450.000000 80.884 157.3582
5520.000000 80.263 160.4185
5600.000000 79.959 163.7452
5700.000000 79.876 165.7949
5800.000000 79.700 165.5446
5900.000000 79.165 165.6400
6000.000000 78.628 168.6582
6080.000000 78.425 171.5189
6150.000000 78.319 173.6448
6220.000000 78.220 175.5818
6300.000000 78.092 177.9905
6400.000000 78.016 -177.9641
6500.000000 78.182 -173.4145
6600.000000 78.543 -169.5623
6700.000000 78.988 -166.5203
6800.000000 79.491 -164.0296
6900.000000 80.043 -162.3022
7000.000000 80.546 -161.4479
7100.000000 80.955 -160.4191
7200.000000 81.439 -158.6281
7300.000000 82.059 -157.0605
7400.000000 82.774 -155.7059
7500.000000 83.704 -154.5466
7620.000000 85.123 -155.4067
7750.000000 86.661 -160.8075
7880.000000 87.736 -170.2528
8000.000000 88.082 179.7600
8120.000000 87.920 170.8938
8250.000000 87.497 163.1642
8380.000000 86.953 156.5280
8500.000000 86.272 151.2273
8620.000000 85.423 147.6448
8750.000000 84.553 145.9594
8850.000000 84.017 145.1205
9000.000000 83.185 143.6434
9120.000000 82.386 144.0802
9250.000000 81.741 147.1719
9380.000000 81.586 150.3442
9500.000000 81.690 151.3127
9620.000000 81.766 150.3356
9750.000000 81.651 148.1235
9880.000000 81.322 145.9882
10000.000000 80.920 144.6506
10150.000000 80.383 143.7394
10300.000000 79.838 143.6848
10440.000000 79.386 144.2812
10600.000000 78.942 145.0934
10750.000000 78.552 146.0317
10900.000000 78.232 147.1785
11060.000000 77.977 147.8350
11200.000000 77.721 147.4855
11380.000000 77.154 146.4661
11500.000000 76.597 146.3882
11720.000000 75.465 149.3108
11800.000000 75.134 151.2285
12060.000000 74.453 156.4636
12200.000000 74.041 158.1797
12410.000000 73.178 162.1926
12500.000000 72.798 164.8724
12650.000000 72.251 170.5467
12800.000000 71.918 177.5341
13150.000000 72.340 -166.8939
13200.000000 72.492 -165.2844
13400.000000 73.154 -160.4926
13600.000000 73.791 -157.8950
13800.000000 74.309 -156.8601
14000.000000 74.667 -156.6992
14300.000000 74.919 -156.6786
14500.000000 75.017 -156.0619
14750.000000 75.254 -155.1799
15000.000000 75.580 -155.7106
15250.000000 75.768 -157.9421
15500.000000 75.696 -160.7985
15750.000000 75.409 -163.3088
16000.000000 75.058 -165.1490
16250.000000 74.769 -166.4642
16500.000000 74.526 -167.4243
16750.000000 74.319 -168.3450
17000.000000 74.108 -169.7325
17250.000000 73.820 -171.4514
17500.000000 73.463 -173.1404
17750.000000 73.078 -175.0161
18000.000000 72.650 -177.4576
18250.000000 72.098 179.4940
18500.000000 71.347 176.2528
18750.000000 70.394 173.5459
19000.000000 69.337 171.8625
19250.000000 68.282 170.9558
19500.000000 67.259 170.3154
19750.000000 66.309 169.7762
20000.000000 65.697 169.4175
