* Measurement data measured by REW V5.30.9
* Source: Headset (Odo By VECLAN.COM), MICROPHONE (Master Volume), L, volume: 0.250
* Format: 512k Log Swept Sine, 1 sweep at -12.0 dBFS with no timing reference
* Dated: 02 1, 25 2:12:16 PM
* REW Settings:
*  C-weighting compensation: Off
*  Target level: 75.0 dB
* Note: ; 
* Measurement: pr3 a01 tras L
* Smoothing: 1/24 octave
* Frequency Step: 1/48 octave
* Start Frequency: 1.000 Hz
*
* Freq(Hz)	SPL(dB)	Phase(degrees)
1.000000	53.087	-46.9766
1.015000	53.403	-49.4246
1.030000	53.718	-51.8350
1.044000	54.011	-54.0599
1.060000	54.342	-56.5835
1.075000	54.648	-58.9396
1.090000	54.950	-61.2931
1.106000	55.270	-63.7982
1.120000	55.551	-65.9693
1.138000	55.918	-68.7075
1.150000	56.166	-70.4910
1.172000	56.626	-73.6596
1.180000	56.794	-74.7770
1.206000	57.346	-78.2755
1.220000	57.646	-80.0744
1.241000	58.096	-82.6642
1.250000	58.289	-83.7357
1.265000	58.611	-85.4725
1.280000	58.933	-87.1513
1.315000	59.678	-90.8651
1.320000	59.783	-91.3746
1.340000	60.202	-93.3664
1.360000	60.616	-95.2913
1.380000	61.023	-97.1589
1.400000	61.421	-98.9784
1.430000	62.001	-101.6362
1.450000	62.374	-103.3714
1.475000	62.825	-105.5024
1.500000	63.263	-107.5739
1.525000	63.690	-109.5759
1.550000	64.107	-111.5098
1.575000	64.515	-113.3804
1.600000	64.913	-115.1932
1.625000	65.302	-116.9546
1.650000	65.683	-118.6713
1.675000	66.057	-120.3503
1.700000	66.423	-121.9982
1.725000	66.783	-123.6217
1.750000	67.136	-125.2271
1.775000	67.484	-126.8207
1.800000	67.826	-128.4080
1.825000	68.164	-129.9933
1.850000	68.495	-131.5749
1.875000	68.819	-133.1443
1.900000	69.135	-134.6948
1.925000	69.443	-136.2225
1.950000	69.745	-137.7251
1.975000	70.040	-139.2018
2.000000	70.329	-140.6523
2.030000	70.668	-142.3596
2.060000	70.999	-144.0327
2.090000	71.324	-145.6750
2.120000	71.642	-147.2908
2.140000	71.852	-148.3555
2.180000	72.263	-150.4620
2.200000	72.466	-151.5072
2.240000	72.862	-153.5870
2.270000	73.150	-155.1347
2.300000	73.431	-156.6672
2.330000	73.706	-158.1810
2.360000	73.974	-159.6739
2.400000	74.322	-161.6299
2.430000	74.577	-163.0708
2.470000	74.909	-164.9585
2.500000	75.153	-166.3508
2.540000	75.472	-168.1803
2.580000	75.784	-169.9889
2.620000	76.087	-171.7899
2.650000	76.308	-173.1354
2.690000	76.595	-174.9161
2.720000	76.805	-176.2379
2.760000	77.078	-177.9777
2.800000	77.344	-179.6885
2.850000	77.666	178.2167
2.900000	77.980	176.1701
2.950000	78.285	174.1600
3.000000	78.580	172.1616
3.040000	78.807	170.5701
3.070000	78.974	169.3845
3.110000	79.190	167.8188
3.150000	79.401	166.2746
3.200000	79.657	164.3801
3.250000	79.906	162.5289
3.300000	80.148	160.7176
3.350000	80.382	158.9261
3.400000	80.607	157.1426
3.450000	80.825	155.3734
3.500000	81.035	153.6279
3.550000	81.239	151.9138
3.600000	81.437	150.2376
3.650000	81.629	148.6009
3.700000	81.816	146.9926
3.750000	81.996	145.3975
3.820000	82.237	143.1870
3.870000	82.403	141.6330
3.950000	82.658	139.2069
4.000000	82.812	137.7352
4.060000	82.991	136.0093
4.120000	83.163	134.3091
4.180000	83.329	132.6306
4.250000	83.515	130.7078
4.310000	83.668	129.0984
4.370000	83.818	127.5305
4.440000	83.988	125.7487
4.500000	84.128	124.2499
4.550000	84.241	123.0186
4.620000	84.395	121.3244
4.680000	84.524	119.9031
4.750000	84.670	118.2838
4.820000	84.814	116.7030
4.870000	84.914	115.5928
4.940000	85.050	114.0623
5.000000	85.165	112.7719
5.080000	85.315	111.0818
5.150000	85.443	109.6307
5.220000	85.570	108.2024
5.300000	85.711	106.5943
5.380000	85.849	105.0094
5.450000	85.967	103.6392
5.520000	86.083	102.2820
5.600000	86.213	100.7434
5.700000	86.371	98.8392
5.800000	86.523	96.9576
5.900000	86.667	95.0940
6.000000	86.806	93.2386
6.080000	86.912	91.7647
6.150000	87.000	90.4888
6.220000	87.085	89.2277
6.300000	87.176	87.7981
6.400000	87.282	86.0232
6.500000	87.380	84.2789
6.600000	87.469	82.5824
6.700000	87.550	80.9261
6.800000	87.623	79.3053
6.900000	87.689	77.7372
7.000000	87.750	76.2345
7.100000	87.805	74.7901
7.200000	87.856	73.3994
7.300000	87.906	72.0668
7.400000	87.955	70.7981
7.500000	88.005	69.5880
7.620000	88.067	68.1918
7.750000	88.140	66.7328
7.880000	88.221	65.3293
8.000000	88.301	64.0489
8.120000	88.387	62.7536
8.250000	88.486	61.3355
8.380000	88.586	59.8818
8.500000	88.676	58.4848
8.620000	88.764	57.0383
8.750000	88.849	55.4319
8.850000	88.905	54.1673
9.000000	88.973	52.2257
9.120000	89.010	50.6785
9.250000	89.030	49.0323
9.380000	89.031	47.4223
9.500000	89.016	46.0175
9.620000	88.987	44.7199
9.750000	88.941	43.4343
9.880000	88.885	42.3041
10.000000	88.827	41.4221
10.150000	88.751	40.5182
10.300000	88.692	39.8023
10.440000	88.660	39.2924
10.600000	88.656	38.7915
10.750000	88.693	38.3182
10.900000	88.764	37.7851
11.060000	88.867	37.0320
11.200000	88.976	36.1954
11.380000	89.118	34.8502
11.500000	89.207	33.7747
11.720000	89.339	31.5253
11.800000	89.373	30.6371
12.060000	89.420	27.6132
12.200000	89.404	25.9984
12.410000	89.333	23.6918
12.500000	89.291	22.7899
12.650000	89.209	21.4205
12.800000	89.122	20.2363
13.150000	88.936	18.2379
13.200000	88.917	18.0219
13.400000	88.866	17.2795
13.600000	88.859	16.5966
13.800000	88.895	15.8423
14.000000	88.955	14.9056
14.300000	89.051	13.0850
14.500000	89.091	11.6322
14.750000	89.091	9.7036
15.000000	89.031	7.8303
15.250000	88.920	6.2235
15.500000	88.786	5.0131
15.750000	88.661	4.2334
16.000000	88.580	3.8024
16.250000	88.562	3.5284
16.500000	88.605	3.2077
16.750000	88.690	2.6653
17.000000	88.789	1.8278
17.250000	88.879	0.7139
17.500000	88.941	-0.5960
17.750000	88.967	-1.9882
18.000000	88.961	-3.3627
18.250000	88.930	-4.6441
18.500000	88.886	-5.7976
18.750000	88.838	-6.8275
19.000000	88.795	-7.7625
19.250000	88.758	-8.6466
19.500000	88.727	-9.5160
19.750000	88.700	-10.3932
20.000000	88.671	-11.2834
20.299999	88.632	-12.3563
20.600000	88.589	-13.4115
20.900000	88.542	-14.4301
21.200001	88.495	-15.4091
21.400000	88.467	-16.0457
21.799999	88.414	-17.3047
22.000000	88.390	-17.9352
22.400000	88.340	-19.1997
22.700001	88.301	-20.1364
23.000000	88.260	-21.0444
23.299999	88.221	-21.9150
23.600000	88.187	-22.7546
24.000000	88.151	-23.8617
24.299999	88.130	-24.7113
24.700001	88.100	-25.8856
25.000000	88.071	-26.7805
25.400000	88.021	-27.9406
25.799999	87.963	-29.0118
26.200001	87.907	-29.9819
26.500000	87.871	-30.6648
26.900000	87.831	-31.5591
27.200001	87.804	-32.2398
27.600000	87.769	-33.1702
28.000000	87.730	-34.1165
28.500000	87.676	-35.2932
29.000000	87.615	-36.4326
29.500000	87.553	-37.5140
30.000000	87.499	-38.5523
30.400000	87.464	-39.3936
30.700001	87.441	-40.0546
31.100000	87.406	-40.9843
31.500000	87.362	-41.9415
32.000000	87.291	-43.0913
32.500000	87.211	-44.1122
33.000000	87.137	-45.0097
33.500000	87.075	-45.8532
34.000000	87.019	-46.6930
34.500000	86.963	-47.5330
35.000000	86.907	-48.3605
35.500000	86.850	-49.1725
36.000000	86.793	-49.9708
36.500000	86.737	-50.7620
37.000000	86.685	-51.5673
37.500000	86.634	-52.4125
38.200001	86.554	-53.6520
38.700001	86.489	-54.5236
39.500000	86.388	-55.8381
40.000000	86.332	-56.6407
40.599998	86.267	-57.6085
41.200001	86.202	-58.5527
41.799999	86.139	-59.4481
42.500000	86.070	-60.4452
43.099998	86.012	-61.2689
43.700001	85.955	-62.0688
44.400002	85.891	-63.0154
45.000000	85.829	-63.8615
45.500000	85.767	-64.5579
46.200001	85.673	-65.4484
46.799999	85.600	-66.1459
47.500000	85.530	-66.9919
48.200001	85.464	-67.9442
48.700001	85.409	-68.6526
49.400002	85.323	-69.5601
50.000000	85.257	-70.2092
50.799999	85.199	-71.0422
51.500000	85.152	-71.8551
52.200001	85.088	-72.6335
53.000000	85.008	-73.4153
53.799999	84.918	-74.1638
54.500000	84.828	-74.7530
55.200001	84.742	-75.4284
56.000000	84.593	-76.4131
57.000000	84.318	-76.8265
58.000000	84.271	-76.5928
59.000000	84.340	-78.1112
60.000000	84.238	-80.0864
60.799999	84.158	-81.2034
61.500000	84.111	-82.1721
62.200001	84.049	-83.0376
63.000000	83.989	-83.6545
64.000000	83.984	-84.3058
65.000000	83.961	-85.2361
66.000000	83.874	-85.8660
67.000000	83.823	-86.1489
68.000000	83.814	-86.7831
69.000000	83.772	-87.8549
70.000000	83.680	-89.0454
71.000000	83.564	-90.0895
72.000000	83.465	-91.0233
73.000000	83.376	-92.0071
74.000000	83.282	-92.9117
75.000000	83.202	-93.7260
76.199997	83.106	-94.7166
77.500000	82.994	-95.4891
78.800003	82.963	-96.1565
80.000000	82.931	-97.3403
81.199997	82.826	-98.3784
82.500000	82.730	-99.0898
83.800003	82.672	-99.8870
85.000000	82.609	-100.7836
86.199997	82.538	-101.7273
87.500000	82.445	-102.8521
88.500000	82.357	-103.6438
90.000000	82.239	-104.6178
91.199997	82.165	-105.3394
92.500000	82.097	-106.1105
93.800003	82.031	-106.9067
95.000000	81.962	-107.6405
96.199997	81.889	-108.3499
97.500000	81.815	-109.1488
98.800003	81.740	-110.0509
100.000000	81.663	-110.8558
101.500000	81.583	-111.7462
103.000000	81.518	-112.6251
104.400002	81.455	-113.4352
106.000000	81.371	-114.3387
107.500000	81.286	-115.1531
109.000000	81.204	-115.9883
110.599998	81.132	-116.8829
112.000000	81.082	-117.6364
113.800003	81.039	-118.5677
115.000000	81.005	-119.2763
117.199997	80.878	-120.3800
118.000000	80.831	-120.6527
120.599998	80.701	-121.4747
122.000000	80.646	-121.9285
124.099998	80.574	-122.8550
125.000000	80.529	-123.3094
126.500000	80.458	-123.9385
128.000000	80.418	-124.5037
131.500000	80.397	-126.2249
132.000000	80.394	-126.4686
134.000000	80.392	-127.4928
136.000000	80.373	-128.7297
138.000000	80.321	-129.9403
140.000000	80.261	-130.9891
143.000000	80.170	-132.5674
145.000000	80.101	-133.6197
147.500000	80.023	-134.8703
150.000000	79.959	-136.0836
152.500000	79.896	-137.3150
155.000000	79.828	-138.4996
157.500000	79.762	-139.5943
160.000000	79.689	-140.7155
162.500000	79.610	-141.8216
165.000000	79.532	-142.9321
167.500000	79.453	-144.0050
170.000000	79.370	-145.0826
172.500000	79.288	-146.0967
175.000000	79.219	-146.9640
177.500000	79.160	-147.7776
180.000000	79.115	-148.6200
182.500000	79.089	-149.5620
185.000000	79.073	-150.6385
187.500000	79.041	-151.7930
190.000000	78.992	-152.9198
192.500000	78.935	-154.0248
195.000000	78.876	-155.0845
197.500000	78.816	-156.1364
200.000000	78.760	-157.1857
203.000000	78.708	-158.3835
206.000000	78.669	-159.5789
209.000000	78.624	-160.7999
212.000000	78.572	-162.0357
214.000000	78.536	-162.8419
218.000000	78.470	-164.3722
220.000000	78.441	-165.1204
224.000000	78.388	-166.6066
227.000000	78.346	-167.6947
230.000000	78.302	-168.7396
233.000000	78.262	-169.8666
236.000000	78.230	-171.1008
240.000000	78.194	-172.7430
243.000000	78.151	-173.7238
247.000000	78.097	-174.9660
250.000000	78.058	-176.0199
254.000000	78.009	-177.3898
258.000000	77.969	-178.7070
262.000000	77.932	-179.9838
265.000000	77.907	179.0525
269.000000	77.878	177.6923
272.000000	77.858	176.6356
276.000000	77.830	175.1894
280.000000	77.796	173.7518
285.000000	77.753	172.0049
290.000000	77.706	170.3281
295.000000	77.658	168.7066
300.000000	77.613	167.1302
304.000000	77.584	165.8521
307.000000	77.564	164.8725
311.000000	77.538	163.5748
315.000000	77.512	162.2850
320.000000	77.476	160.6790
325.000000	77.441	159.0858
330.000000	77.411	157.5430
335.000000	77.385	156.0193
340.000000	77.353	154.4307
345.000000	77.318	152.8325
350.000000	77.288	151.3033
355.000000	77.260	149.8334
360.000000	77.224	148.3544
365.000000	77.198	146.8846
370.000000	77.180	145.4270
375.000000	77.162	143.9843
382.000000	77.128	141.9940
387.000000	77.106	140.5596
395.000000	77.072	138.3183
400.000000	77.055	136.9409
406.000000	77.040	135.2718
412.000000	77.017	133.6071
418.000000	76.989	131.9851
425.000000	76.962	130.1056
431.000000	76.949	128.4873
437.000000	76.934	126.8936
444.000000	76.915	125.0485
450.000000	76.898	123.4576
455.000000	76.888	122.1664
462.000000	76.876	120.3730
468.000000	76.862	118.8661
475.000000	76.847	117.1426
482.000000	76.832	115.4136
487.000000	76.819	114.1625
494.000000	76.800	112.4248
500.000000	76.789	110.9625
508.000000	76.776	109.0694
515.000000	76.763	107.4238
522.000000	76.752	105.7609
530.000000	76.745	103.8739
538.000000	76.734	101.9968
545.000000	76.727	100.4314
552.000000	76.730	98.9025
560.000000	76.730	97.0902
570.000000	76.720	94.8380
580.000000	76.713	92.6549
590.000000	76.706	90.5494
600.000000	76.704	88.5233
608.000000	76.708	86.8514
615.000000	76.714	85.3806
622.000000	76.715	83.9644
630.000000	76.712	82.3962
640.000000	76.709	80.4084
650.000000	76.715	78.4207
660.000000	76.725	76.4398
670.000000	76.730	74.5617
680.000000	76.735	72.7399
690.000000	76.750	70.9079
700.000000	76.763	69.1002
710.000000	76.777	67.3577
720.000000	76.794	65.6825
730.000000	76.812	64.0193
740.000000	76.830	62.3180
750.000000	76.852	60.6099
762.000000	76.881	58.6601
775.000000	76.915	56.6121
788.000000	76.952	54.5320
800.000000	76.986	52.6035
812.000000	77.021	50.7327
825.000000	77.064	48.7156
838.000000	77.112	46.7832
850.000000	77.162	45.0922
862.000000	77.212	43.4202
875.000000	77.268	41.5836
885.000000	77.316	40.1800
900.000000	77.394	38.1310
912.000000	77.457	36.5387
925.000000	77.526	34.7952
938.000000	77.601	33.0205
950.000000	77.676	31.3866
962.000000	77.753	29.7659
975.000000	77.835	28.0698
988.000000	77.921	26.3950
1000.000000	78.006	24.8760
1015.000000	78.116	22.9749
1030.000000	78.228	21.0040
1044.000000	78.335	19.1326
1060.000000	78.452	17.0291
1075.000000	78.561	15.0778
1090.000000	78.672	13.1125
1106.000000	78.790	11.0162
1120.000000	78.885	9.2106
1138.000000	79.008	6.8893
1150.000000	79.091	5.3377
1172.000000	79.221	2.4839
1180.000000	79.266	1.4483
1206.000000	79.413	-1.7135
1220.000000	79.487	-3.3293
1241.000000	79.592	-5.7305
1250.000000	79.641	-6.7431
1265.000000	79.730	-8.3741
1280.000000	79.824	-9.9475
1315.000000	80.034	-13.5947
1320.000000	80.062	-14.1222
1340.000000	80.175	-16.2010
1360.000000	80.295	-18.2246
1380.000000	80.416	-20.2131
1400.000000	80.535	-22.1384
1430.000000	80.722	-24.8597
1450.000000	80.838	-26.6384
1475.000000	80.978	-28.8774
1500.000000	81.149	-31.0774
1525.000000	81.324	-33.2036
1550.000000	81.489	-35.3331
1575.000000	81.654	-37.3919
1600.000000	81.827	-39.3344
1625.000000	81.993	-41.3268
1650.000000	82.156	-43.4308
1675.000000	82.327	-45.5949
1700.000000	82.492	-47.8767
1725.000000	82.626	-50.3066
1750.000000	82.711	-52.7976
1775.000000	82.725	-55.1499
1800.000000	82.657	-57.1004
1825.000000	82.559	-58.3542
1850.000000	82.513	-58.8986
1875.000000	82.552	-59.1473
1900.000000	82.662	-59.4164
1925.000000	82.814	-59.7745
1950.000000	82.984	-60.2722
1975.000000	83.156	-60.9211
2000.000000	83.331	-61.6280
2030.000000	83.547	-62.3875
2060.000000	83.779	-62.9975
2090.000000	84.050	-63.4955
2120.000000	84.371	-64.1393
2140.000000	84.597	-64.8013
2180.000000	85.029	-66.6786
2200.000000	85.224	-67.7288
2240.000000	85.580	-69.7944
2270.000000	85.813	-71.3596
2300.000000	86.037	-72.9526
2330.000000	86.260	-74.5312
2360.000000	86.473	-76.1422
2400.000000	86.727	-78.4202
2430.000000	86.901	-80.1876
2470.000000	87.115	-82.5814
2500.000000	87.260	-84.4801
2540.000000	87.423	-87.3162
2580.000000	87.524	-90.5571
2620.000000	87.484	-94.0773
2650.000000	87.306	-96.5551
2690.000000	86.891	-98.7831
2720.000000	86.551	-99.2755
2760.000000	86.199	-98.7294
2800.000000	85.986	-97.7551
2850.000000	85.818	-96.7567
2900.000000	85.694	-95.8861
2950.000000	85.580	-95.0663
3000.000000	85.450	-94.2898
3040.000000	85.320	-93.7122
3070.000000	85.189	-93.3373
3110.000000	84.959	-92.7838
3150.000000	84.635	-91.9329
3200.000000	84.100	-89.6708
3250.000000	83.629	-85.4960
3300.000000	83.391	-80.6726
3350.000000	83.289	-76.3549
3400.000000	83.216	-72.3972
3450.000000	83.139	-68.4773
3500.000000	83.047	-64.6755
3550.000000	82.939	-60.9553
3600.000000	82.804	-57.0915
3650.000000	82.647	-52.8728
3700.000000	82.503	-48.2833
3750.000000	82.387	-43.4421
3820.000000	82.268	-36.3967
3870.000000	82.201	-31.3235
3950.000000	82.129	-23.0040
4000.000000	82.093	-17.8739
4060.000000	82.044	-11.9677
4120.000000	81.947	-6.2620
4180.000000	81.716	-0.2729
4250.000000	81.334	8.7190
4310.000000	81.208	18.1007
4370.000000	81.310	27.0728
4440.000000	81.504	36.3953
4500.000000	81.657	43.8036
4550.000000	81.773	49.7671
4620.000000	81.902	57.8978
4680.000000	81.923	64.5629
4750.000000	81.761	72.4655
4820.000000	81.534	82.0887
4870.000000	81.482	89.8383
4940.000000	81.580	100.3755
5000.000000	81.705	108.4123
5080.000000	81.792	118.0520
5150.000000	81.758	125.9695
5220.000000	81.551	133.0043
5300.000000	80.895	140.6384
5380.000000	79.802	151.6915
5450.000000	78.899	165.7255
5520.000000	78.335	-178.4276
5600.000000	78.074	-160.6073
5700.000000	78.016	-140.5482
5800.000000	77.824	-122.9756
5900.000000	77.265	-104.1337
6000.000000	76.746	-81.6070
6080.000000	76.560	-63.3141
6150.000000	76.463	-47.6699
6220.000000	76.371	-32.1753
6300.000000	76.262	-14.1827
6400.000000	76.264	7.9023
6500.000000	76.462	22.3077
6600.000000	76.796	28.2795
6700.000000	77.236	31.2115
6800.000000	77.747	33.3318
6900.000000	78.316	35.0370
7000.000000	78.829	36.1249
7100.000000	79.246	37.2641
7200.000000	79.747	38.9100
7300.000000	80.376	40.4019
7400.000000	81.104	41.9185
7500.000000	82.041	42.7901
7620.000000	83.414	40.9746
7750.000000	84.815	34.7313
7880.000000	85.681	25.0374
8000.000000	85.824	15.1610
8120.000000	85.503	6.8363
8250.000000	84.978	0.0387
8380.000000	84.373	-5.9512
8500.000000	83.646	-10.9520
8620.000000	82.773	-14.1123
8750.000000	81.923	-15.2532
8850.000000	81.409	-16.0396
9000.000000	80.577	-17.7501
9120.000000	79.778	-17.2018
9250.000000	79.173	-13.8712
9380.000000	79.059	-11.0609
9500.000000	79.176	-10.6929
9620.000000	79.247	-12.0536
9750.000000	79.113	-14.5254
9880.000000	78.766	-17.0447
10000.000000	78.363	-18.6846
10150.000000	77.842	-19.8098
10300.000000	77.306	-20.3710
10440.000000	76.858	-20.4028
10600.000000	76.422	-20.0513
10750.000000	76.049	-19.6561
10900.000000	75.756	-19.3809
11060.000000	75.520	-19.8418
11200.000000	75.255	-21.3199
11380.000000	74.653	-23.5134
11500.000000	74.081	-23.9904
11720.000000	72.965	-22.0242
11800.000000	72.655	-20.6659
12060.000000	72.010	-17.2504
12200.000000	71.579	-16.4157
12410.000000	70.687	-13.9550
12500.000000	70.302	-12.0166
12650.000000	69.757	-7.5837
12800.000000	69.449	-1.8295
13150.000000	69.971	11.0233
13200.000000	70.135	12.4278
13400.000000	70.848	16.5962
13600.000000	71.523	17.6787
13800.000000	72.073	16.7543
14000.000000	72.460	15.2301
14300.000000	72.762	12.7997
14500.000000	72.901	11.2975
14750.000000	73.189	9.6321
15000.000000	73.542	6.8458
15250.000000	73.719	1.7600
15500.000000	73.615	-3.9557
15750.000000	73.293	-8.6793
16000.000000	72.896	-12.3494
16250.000000	72.558	-13.2502
16500.000000	72.286	-9.1580
16750.000000	72.053	-2.6021
17000.000000	71.804	3.3423
17250.000000	71.475	9.0183
17500.000000	71.080	15.6230
17750.000000	70.657	22.6053
18000.000000	70.184	28.6191
18250.000000	69.589	34.3304
18500.000000	68.801	40.7735
18750.000000	67.817	47.9561
19000.000000	66.753	56.3774
19250.000000	65.712	66.2303
19500.000000	64.680	76.5162
19750.000000	63.675	86.4482
20000.000000	63.014	94.5053
