* Measurement data measured by REW V5.30.9
* Source: Headset (Odo By VECLAN.COM), MICROPHONE (Master Volume), L, volume: 0.250
* Format: 512k Log Swept Sine, 1 sweep at -12.0 dBFS with no timing reference
* Dated: 02 1, 25 2:17:13 PM
* REW Settings:
*  C-weighting compensation: Off
*  Target level: 75.0 dB
* Note: ; 
* Measurement: pr3 a01 ac L
* Smoothing: 1/24 octave
* Frequency Step: 1/48 octave
* Start Frequency: 1.000 Hz
*
* Freq(Hz)	SPL(dB)	Phase(degrees)
1.000000	53.142	-69.1666
1.015000	53.589	-70.7678
1.030000	54.027	-72.3682
1.044000	54.425	-73.8663
1.060000	54.867	-75.5887
1.075000	55.265	-77.2179
1.090000	55.647	-78.8626
1.106000	56.039	-80.6233
1.120000	56.372	-82.1453
1.138000	56.791	-84.0555
1.150000	57.065	-85.2963
1.172000	57.556	-87.5007
1.180000	57.731	-88.2796
1.206000	58.289	-90.7301
1.220000	58.582	-92.0003
1.241000	59.013	-93.8453
1.250000	59.195	-94.6153
1.265000	59.494	-95.8731
1.280000	59.789	-97.1011
1.315000	60.460	-99.8664
1.320000	60.554	-100.2515
1.340000	60.926	-101.7707
1.360000	61.292	-103.2608
1.380000	61.653	-104.7278
1.400000	62.010	-106.1772
1.430000	62.537	-108.3297
1.450000	62.884	-109.7566
1.475000	63.312	-111.5268
1.500000	63.730	-113.2567
1.525000	64.137	-114.9345
1.550000	64.534	-116.5625
1.575000	64.920	-118.1460
1.600000	65.297	-119.6907
1.625000	65.664	-121.2023
1.650000	66.024	-122.6869
1.675000	66.377	-124.1505
1.700000	66.722	-125.5987
1.725000	67.062	-127.0371
1.750000	67.396	-128.4710
1.775000	67.725	-129.9054
1.800000	68.051	-131.3450
1.825000	68.372	-132.7923
1.850000	68.689	-134.2427
1.875000	68.999	-135.6853
1.900000	69.303	-137.1132
1.925000	69.600	-138.5233
1.950000	69.890	-139.9141
1.975000	70.175	-141.2850
2.000000	70.454	-142.6363
2.030000	70.783	-144.2332
2.060000	71.104	-145.8054
2.090000	71.419	-147.3563
2.120000	71.729	-148.8897
2.140000	71.932	-149.9044
2.180000	72.333	-151.9216
2.200000	72.531	-152.9268
2.240000	72.917	-154.9315
2.270000	73.200	-156.4256
2.300000	73.475	-157.9070
2.330000	73.745	-159.3728
2.360000	74.009	-160.8210
2.400000	74.352	-162.7230
2.430000	74.603	-164.1281
2.470000	74.932	-165.9742
2.500000	75.173	-167.3403
2.540000	75.489	-169.1414
2.580000	75.798	-170.9281
2.620000	76.099	-172.7106
2.650000	76.319	-174.0436
2.690000	76.604	-175.8095
2.720000	76.814	-177.1218
2.760000	77.086	-178.8513
2.800000	77.351	179.4453
2.850000	77.674	177.3552
2.900000	77.989	175.3075
2.950000	78.294	173.2905
3.000000	78.589	171.2816
3.040000	78.818	169.6799
3.070000	78.986	168.4857
3.110000	79.204	166.9076
3.150000	79.416	165.3499
3.200000	79.674	163.4368
3.250000	79.925	161.5650
3.300000	80.169	159.7309
3.350000	80.405	157.9144
3.400000	80.633	156.1042
3.450000	80.853	154.3071
3.500000	81.066	152.5329
3.550000	81.272	150.7897
3.600000	81.472	149.0839
3.650000	81.667	147.4170
3.700000	81.856	145.7775
3.750000	82.038	144.1495
3.820000	82.282	141.8915
3.870000	82.450	140.3032
3.950000	82.708	137.8229
4.000000	82.864	136.3180
4.060000	83.045	134.5523
4.120000	83.219	132.8111
4.180000	83.386	131.0906
4.250000	83.573	129.1193
4.310000	83.727	127.4697
4.370000	83.877	125.8634
4.440000	84.047	124.0383
4.500000	84.186	122.5018
4.550000	84.299	121.2390
4.620000	84.451	119.5024
4.680000	84.578	118.0475
4.750000	84.722	116.3938
4.820000	84.863	114.7822
4.870000	84.960	113.6510
4.940000	85.092	112.0931
5.000000	85.203	110.7824
5.080000	85.347	109.0724
5.150000	85.470	107.6115
5.220000	85.591	106.1793
5.300000	85.725	104.5727
5.380000	85.857	102.9958
5.450000	85.969	101.6392
5.520000	86.080	100.3028
5.600000	86.203	98.7975
5.700000	86.355	96.9452
5.800000	86.501	95.1217
5.900000	86.643	93.3220
6.000000	86.781	91.5404
6.080000	86.888	90.1286
6.150000	86.978	88.9039
6.220000	87.066	87.6886
6.300000	87.163	86.3072
6.400000	87.279	84.5889
6.500000	87.388	82.8885
6.600000	87.491	81.2120
6.700000	87.586	79.5518
6.800000	87.675	77.9068
6.900000	87.756	76.2907
7.000000	87.831	74.7097
7.100000	87.898	73.1550
7.200000	87.959	71.6303
7.300000	88.014	70.1486
7.400000	88.064	68.7126
7.500000	88.108	67.3159
7.620000	88.156	65.6961
7.750000	88.203	64.0217
7.880000	88.247	62.4265
8.000000	88.285	61.0159
8.120000	88.325	59.6638
8.250000	88.369	58.2625
8.380000	88.416	56.9087
8.500000	88.463	55.6904
8.620000	88.513	54.5009
8.750000	88.571	53.2271
8.850000	88.618	52.2480
9.000000	88.690	50.7803
9.120000	88.749	49.6003
9.250000	88.812	48.3074
9.380000	88.874	47.0014
9.500000	88.928	45.7895
9.620000	88.978	44.5713
9.750000	89.028	43.2477
9.880000	89.067	41.9333
10.000000	89.092	40.7328
10.150000	89.110	39.2527
10.300000	89.119	37.8107
10.440000	89.119	36.5027
10.600000	89.117	35.0514
10.750000	89.114	33.7353
10.900000	89.112	32.4548
11.060000	89.112	31.1153
11.200000	89.114	29.9603
11.380000	89.118	28.4810
11.500000	89.121	27.4918
11.720000	89.124	25.6692
11.800000	89.123	25.0019
12.060000	89.110	22.8319
12.200000	89.094	21.6776
12.410000	89.061	19.9891
12.500000	89.046	19.2931
12.650000	89.020	18.1760
12.800000	88.992	17.1241
13.150000	88.926	14.9626
13.200000	88.918	14.6858
13.400000	88.893	13.6496
13.600000	88.883	12.6899
13.800000	88.890	11.7664
14.000000	88.912	10.8251
14.300000	88.964	9.3060
14.500000	89.001	8.1919
14.750000	89.038	6.6995
15.000000	89.055	5.1390
15.250000	89.048	3.5844
15.500000	89.020	2.1062
15.750000	88.977	0.7535
16.000000	88.932	-0.4530
16.250000	88.896	-1.5345
16.500000	88.872	-2.5338
16.750000	88.863	-3.5076
17.000000	88.864	-4.5034
17.250000	88.869	-5.5466
17.500000	88.872	-6.6405
17.750000	88.869	-7.7674
18.000000	88.858	-8.9027
18.250000	88.839	-10.0228
18.500000	88.814	-11.1124
18.750000	88.787	-12.1677
19.000000	88.759	-13.1918
19.250000	88.731	-14.1919
19.500000	88.702	-15.1735
19.750000	88.673	-16.1384
20.000000	88.644	-17.0849
20.299999	88.608	-18.1935
20.600000	88.574	-19.2728
20.900000	88.542	-20.3295
21.200001	88.512	-21.3745
21.400000	88.493	-22.0693
21.799999	88.455	-23.4554
22.000000	88.435	-24.1432
22.400000	88.392	-25.4937
22.700001	88.359	-26.4775
23.000000	88.327	-27.4381
23.299999	88.296	-28.3841
23.600000	88.266	-29.3235
24.000000	88.225	-30.5684
24.299999	88.191	-31.4871
24.700001	88.143	-32.6740
25.000000	88.108	-33.5320
25.400000	88.064	-34.6481
25.799999	88.024	-35.7617
26.200001	87.983	-36.8882
26.500000	87.948	-37.7313
26.900000	87.897	-38.8253
27.200001	87.858	-39.6116
27.600000	87.808	-40.6235
28.000000	87.764	-41.6265
28.500000	87.709	-42.8994
29.000000	87.645	-44.1481
29.500000	87.580	-45.2948
30.000000	87.531	-46.3701
30.400000	87.507	-47.2751
30.700001	87.490	-48.0192
31.100000	87.456	-49.0811
31.500000	87.402	-50.1388
32.000000	87.316	-51.3063
32.500000	87.241	-52.2808
33.000000	87.194	-53.2344
33.500000	87.157	-54.3337
34.000000	87.096	-55.5341
34.500000	87.009	-56.6436
35.000000	86.920	-57.5511
35.500000	86.857	-58.3468
36.000000	86.820	-59.2064
36.500000	86.788	-60.2109
37.000000	86.743	-61.3076
37.500000	86.683	-62.4009
38.200001	86.587	-63.8287
38.700001	86.517	-64.7625
39.500000	86.413	-66.1238
40.000000	86.356	-66.9185
40.599998	86.296	-67.8494
41.200001	86.242	-68.7795
41.799999	86.192	-69.7326
42.500000	86.130	-70.8867
43.099998	86.071	-71.8871
43.700001	86.009	-72.8790
44.400002	85.934	-74.0374
45.000000	85.867	-75.0182
45.500000	85.811	-75.8058
46.200001	85.743	-76.8828
46.799999	85.691	-77.8299
47.500000	85.626	-78.9464
48.200001	85.557	-80.0031
48.700001	85.508	-80.7213
49.400002	85.438	-81.7075
50.000000	85.371	-82.5263
50.799999	85.273	-83.5434
51.500000	85.187	-84.3917
52.200001	85.101	-85.2561
53.000000	85.005	-86.3055
53.799999	84.909	-87.4423
54.500000	84.826	-88.4614
55.200001	84.756	-89.4442
56.000000	84.705	-90.6387
57.000000	84.621	-92.2000
58.000000	84.523	-93.0576
59.000000	84.504	-93.5095
60.000000	84.497	-93.4518
60.799999	84.640	-93.2054
61.500000	84.830	-94.2104
62.200001	84.854	-96.2548
63.000000	84.629	-98.1821
64.000000	84.329	-99.0623
65.000000	84.125	-99.9574
66.000000	83.924	-100.6874
67.000000	83.873	-101.3466
68.000000	83.873	-103.0065
69.000000	83.753	-104.7415
70.000000	83.636	-105.6861
71.000000	83.585	-106.5507
72.000000	83.529	-107.5464
73.000000	83.465	-108.5598
74.000000	83.388	-109.6269
75.000000	83.307	-110.6530
76.199997	83.222	-111.9150
77.500000	83.129	-113.3150
78.800003	83.024	-114.5869
80.000000	82.931	-115.6076
81.199997	82.845	-116.6371
82.500000	82.745	-117.8024
83.800003	82.654	-118.9731
85.000000	82.578	-120.1346
86.199997	82.499	-121.2236
87.500000	82.435	-122.2695
88.500000	82.395	-123.1176
90.000000	82.313	-124.3861
91.199997	82.246	-125.3038
92.500000	82.180	-126.3556
93.800003	82.108	-127.4557
95.000000	82.040	-128.4647
96.199997	81.969	-129.4352
97.500000	81.895	-130.4264
98.800003	81.825	-131.3806
100.000000	81.765	-132.2704
101.500000	81.690	-133.4047
103.000000	81.619	-134.5295
104.400002	81.560	-135.6067
106.000000	81.491	-136.8901
107.500000	81.422	-138.0568
109.000000	81.355	-139.1683
110.599998	81.284	-140.3242
112.000000	81.220	-141.3412
113.800003	81.131	-142.6674
115.000000	81.073	-143.5480
117.199997	80.985	-145.1956
118.000000	80.957	-145.8257
120.599998	80.840	-147.7284
122.000000	80.779	-148.5504
124.099998	80.700	-149.7679
125.000000	80.672	-150.3132
126.500000	80.631	-151.2857
128.000000	80.594	-152.3110
131.500000	80.483	-154.6506
132.000000	80.467	-154.9675
134.000000	80.408	-156.2905
136.000000	80.348	-157.6751
138.000000	80.290	-159.0163
140.000000	80.239	-160.2532
143.000000	80.160	-162.1102
145.000000	80.104	-163.3759
147.500000	80.040	-164.9825
150.000000	79.980	-166.5604
152.500000	79.920	-168.0685
155.000000	79.859	-169.6204
157.500000	79.794	-171.1700
160.000000	79.728	-172.6876
162.500000	79.656	-174.1838
165.000000	79.582	-175.6507
167.500000	79.510	-177.1207
170.000000	79.439	-178.5920
172.500000	79.371	179.9537
175.000000	79.306	178.4892
177.500000	79.244	177.0024
180.000000	79.186	175.5251
182.500000	79.134	174.1890
185.000000	79.087	172.8825
187.500000	79.019	171.4901
190.000000	78.942	170.1051
192.500000	78.879	168.6995
195.000000	78.824	167.3278
197.500000	78.772	166.0096
200.000000	78.721	164.7032
203.000000	78.671	163.1017
206.000000	78.632	161.4883
209.000000	78.595	159.8711
212.000000	78.551	158.2673
214.000000	78.523	157.2162
218.000000	78.468	155.0834
220.000000	78.439	154.0452
224.000000	78.385	151.9708
227.000000	78.345	150.4032
230.000000	78.309	148.8817
233.000000	78.278	147.3373
236.000000	78.250	145.6738
240.000000	78.204	143.4993
243.000000	78.164	142.1354
247.000000	78.112	140.2335
250.000000	78.072	138.7775
254.000000	78.026	136.8405
258.000000	77.986	134.9020
262.000000	77.941	133.0077
265.000000	77.904	131.5685
269.000000	77.858	129.6590
272.000000	77.826	128.2618
276.000000	77.784	126.3924
280.000000	77.745	124.5305
285.000000	77.697	122.2734
290.000000	77.660	120.0216
295.000000	77.633	117.7183
300.000000	77.611	115.4354
304.000000	77.586	113.6630
307.000000	77.565	112.3152
311.000000	77.540	110.4817
315.000000	77.516	108.6468
320.000000	77.485	106.3793
325.000000	77.450	104.1213
330.000000	77.422	101.8966
335.000000	77.395	99.7013
340.000000	77.361	97.5270
345.000000	77.329	95.3748
350.000000	77.300	93.2203
355.000000	77.271	91.0543
360.000000	77.243	88.8969
365.000000	77.220	86.8484
370.000000	77.198	84.8026
375.000000	77.176	82.7462
382.000000	77.149	79.8973
387.000000	77.132	77.8577
395.000000	77.103	74.6182
400.000000	77.085	72.6253
406.000000	77.064	70.2398
412.000000	77.041	67.8690
418.000000	77.021	65.4970
425.000000	76.998	62.7279
431.000000	76.975	60.4247
437.000000	76.957	58.1305
444.000000	76.942	55.4702
450.000000	76.926	53.1921
455.000000	76.911	51.3188
462.000000	76.892	48.7426
468.000000	76.878	46.5480
475.000000	76.861	44.0193
482.000000	76.844	41.4830
487.000000	76.834	39.6583
494.000000	76.824	37.1487
500.000000	76.813	35.0189
508.000000	76.798	32.2030
515.000000	76.787	29.7671
522.000000	76.778	27.3539
530.000000	76.768	24.6364
538.000000	76.756	21.9774
545.000000	76.747	19.6402
552.000000	76.742	17.3088
560.000000	76.740	14.6750
570.000000	76.735	11.4275
580.000000	76.732	8.2213
590.000000	76.737	5.0706
600.000000	76.738	1.9788
608.000000	76.735	-0.5452
615.000000	76.735	-2.7254
622.000000	76.737	-4.8685
630.000000	76.738	-7.2912
640.000000	76.738	-10.2873
650.000000	76.741	-13.2198
660.000000	76.746	-16.1006
670.000000	76.753	-19.0295
680.000000	76.762	-21.8870
690.000000	76.776	-24.6779
700.000000	76.790	-27.4325
710.000000	76.803	-30.1790
720.000000	76.818	-32.9026
730.000000	76.837	-35.5496
740.000000	76.857	-38.1618
750.000000	76.878	-40.7604
762.000000	76.908	-43.8745
775.000000	76.942	-47.1709
788.000000	76.977	-50.4590
800.000000	77.017	-53.4508
812.000000	77.058	-56.3637
825.000000	77.102	-59.5009
838.000000	77.150	-62.6006
850.000000	77.197	-65.4484
862.000000	77.247	-68.2349
875.000000	77.307	-71.1862
885.000000	77.357	-73.4244
900.000000	77.431	-76.7699
912.000000	77.494	-79.4589
925.000000	77.571	-82.3202
938.000000	77.650	-85.1448
950.000000	77.722	-87.7519
962.000000	77.795	-90.3600
975.000000	77.882	-93.1621
988.000000	77.972	-95.9394
1000.000000	78.055	-98.4901
1015.000000	78.159	-101.6824
1030.000000	78.268	-104.9005
1044.000000	78.372	-107.8939
1060.000000	78.488	-111.2867
1075.000000	78.594	-114.4602
1090.000000	78.706	-117.6219
1106.000000	78.824	-120.9865
1120.000000	78.924	-123.9375
1138.000000	79.046	-127.7188
1150.000000	79.126	-130.1802
1172.000000	79.264	-134.6191
1180.000000	79.310	-136.2253
1206.000000	79.449	-141.3340
1220.000000	79.526	-143.9695
1241.000000	79.638	-147.8538
1250.000000	79.686	-149.5175
1265.000000	79.769	-152.2795
1280.000000	79.856	-155.0093
1315.000000	80.064	-161.2393
1320.000000	80.094	-162.1094
1340.000000	80.217	-165.5259
1360.000000	80.342	-168.8712
1380.000000	80.461	-172.1973
1400.000000	80.581	-175.4575
1430.000000	80.765	179.7549
1450.000000	80.886	176.6052
1475.000000	81.045	172.7483
1500.000000	81.207	168.9485
1525.000000	81.370	165.1533
1550.000000	81.538	161.4462
1575.000000	81.710	157.8005
1600.000000	81.874	154.1433
1625.000000	82.037	150.5050
1650.000000	82.208	146.9125
1675.000000	82.376	143.2561
1700.000000	82.533	139.4390
1725.000000	82.663	135.4958
1750.000000	82.741	131.4894
1775.000000	82.735	127.6030
1800.000000	82.656	124.2336
1825.000000	82.566	121.6887
1850.000000	82.538	119.8145
1875.000000	82.589	118.1626
1900.000000	82.702	116.4402
1925.000000	82.850	114.6069
1950.000000	83.016	112.6743
1975.000000	83.183	110.6506
2000.000000	83.343	108.5928
2030.000000	83.531	106.2600
2060.000000	83.740	104.2053
2090.000000	83.991	102.3198
2120.000000	84.301	100.3274
2140.000000	84.535	98.8330
2180.000000	85.020	95.3606
2200.000000	85.243	93.3953
2240.000000	85.630	89.2162
2270.000000	85.889	86.1018
2300.000000	86.135	83.0085
2330.000000	86.364	79.8492
2360.000000	86.575	76.6731
2400.000000	86.831	72.4922
2430.000000	87.003	69.3274
2470.000000	87.216	65.0048
2500.000000	87.361	61.6992
2540.000000	87.523	57.1200
2580.000000	87.604	52.1575
2620.000000	87.536	46.9403
2650.000000	87.336	43.2583
2690.000000	86.910	39.5425
2720.000000	86.575	37.9530
2760.000000	86.241	36.9678
2800.000000	86.037	36.3071
2850.000000	85.862	35.2312
2900.000000	85.714	34.1545
2950.000000	85.578	33.1965
3000.000000	85.428	32.0958
3040.000000	85.281	31.1519
3070.000000	85.143	30.4858
3110.000000	84.901	29.7067
3150.000000	84.559	29.2625
3200.000000	84.036	30.1234
3250.000000	83.626	32.8407
3300.000000	83.431	35.9465
3350.000000	83.338	38.4788
3400.000000	83.263	40.6705
3450.000000	83.185	42.8491
3500.000000	83.099	45.0276
3550.000000	82.988	47.1929
3600.000000	82.839	49.6213
3650.000000	82.676	52.6666
3700.000000	82.535	56.0916
3750.000000	82.424	59.5610
3820.000000	82.308	64.5692
3870.000000	82.243	68.2999
3950.000000	82.160	74.3362
4000.000000	82.119	78.2285
4060.000000	82.073	82.9949
4120.000000	81.961	87.4023
4180.000000	81.704	91.9913
4250.000000	81.335	99.6436
4310.000000	81.242	107.7085
4370.000000	81.354	115.2795
4440.000000	81.551	123.2654
4500.000000	81.703	129.6240
4550.000000	81.812	134.6262
4620.000000	81.927	141.2516
4680.000000	81.928	146.6016
4750.000000	81.749	153.3271
4820.000000	81.535	162.0312
4870.000000	81.505	169.0815
4940.000000	81.622	178.5259
5000.000000	81.746	-174.4410
5080.000000	81.821	-166.1428
5150.000000	81.774	-159.4263
5220.000000	81.548	-153.4238
5300.000000	80.856	-146.6648
5380.000000	79.743	-136.2362
5450.000000	78.857	-122.6498
5520.000000	78.329	-107.2936
5600.000000	78.094	-90.4650
5700.000000	78.029	-71.9131
5800.000000	77.806	-55.3340
5900.000000	77.220	-37.3604
6000.000000	76.721	-15.7344
6080.000000	76.537	1.9129
6150.000000	76.429	17.1035
6220.000000	76.317	32.1855
6300.000000	76.181	49.9691
6400.000000	76.139	74.0563
6500.000000	76.355	99.0110
6600.000000	76.725	122.9982
6700.000000	77.164	146.3092
6800.000000	77.668	169.5508
6900.000000	78.217	-167.8043
7000.000000	78.696	-146.0364
7100.000000	79.095	-123.3737
7200.000000	79.594	-99.2063
7300.000000	80.213	-75.1753
7400.000000	80.933	-50.9016
7500.000000	81.896	-26.3064
7620.000000	83.343	-0.7946
7750.000000	84.808	11.9623
7880.000000	85.686	7.4385
8000.000000	85.899	-1.4805
8120.000000	85.659	-9.6479
8250.000000	85.188	-16.6493
8380.000000	84.597	-22.5603
8500.000000	83.859	-27.3461
8620.000000	82.979	-30.2355
8750.000000	82.124	-31.1335
8850.000000	81.591	-31.7430
9000.000000	80.710	-32.8451
9120.000000	79.907	-31.5050
9250.000000	79.358	-27.5615
9380.000000	79.294	-24.5448
9500.000000	79.422	-24.0854
9620.000000	79.480	-25.3132
9750.000000	79.330	-27.3754
9880.000000	78.968	-29.3872
10000.000000	78.552	-30.7397
10150.000000	78.011	-31.4608
10300.000000	77.478	-30.8689
10440.000000	77.033	-30.0744
10600.000000	76.585	-29.4783
10750.000000	76.205	-28.6124
10900.000000	75.911	-27.4822
11060.000000	75.658	-27.3241
11200.000000	75.362	-28.3018
11380.000000	74.710	-29.7821
11500.000000	74.113	-29.8409
11720.000000	72.999	-26.9163
11800.000000	72.696	-25.1828
12060.000000	72.018	-20.3309
12200.000000	71.555	-18.1403
12410.000000	70.665	-13.6195
12500.000000	70.302	-10.8789
12650.000000	69.816	-5.0977
12800.000000	69.573	2.0552
13150.000000	70.151	16.3983
13200.000000	70.311	17.8086
13400.000000	70.996	22.3004
13600.000000	71.643	24.6251
13800.000000	72.154	24.8527
14000.000000	72.496	24.2230
14300.000000	72.720	23.1782
14500.000000	72.817	23.1359
14750.000000	73.079	23.5212
15000.000000	73.413	22.1071
15250.000000	73.580	19.0077
15500.000000	73.483	15.8676
15750.000000	73.163	12.6521
16000.000000	72.778	9.9816
16250.000000	72.466	8.4677
16500.000000	72.216	7.4369
16750.000000	72.003	5.9786
17000.000000	71.780	4.2709
17250.000000	71.488	2.9242
17500.000000	71.126	1.4218
17750.000000	70.730	-0.5463
18000.000000	70.279	-2.4941
18250.000000	69.702	-3.9624
18500.000000	68.923	-5.7174
18750.000000	67.954	-7.2366
19000.000000	66.903	-7.3060
19250.000000	65.853	-5.2051
19500.000000	64.800	0.4645
19750.000000	63.808	10.9463
20000.000000	63.190	21.4097
