* Measurement data measured by REW V5.31.3
* Source: Headset (Odo By VECLAN.COM), MICROPHONE (Master Volume), R, volume: 0.250
* Format: 1M Log Swept Sine, 1 sweep at -12.0 dBFS with no timing reference
* Dated: 02 6, 25 6:10:02 AM
* REW Settings:
*  C-weighting compensation: Off
*  Target level: 75.0 dB
* Note: ; 
* Measurement: volume s k7 min values R
* Smoothing: 1/24 octave
* Frequency Step: 1/48 octave
* Start Frequency: 1.000 Hz
*
* Freq(Hz) SPL(dB) Phase(degrees)
1.000000 49.912 -155.6613
1.015000 49.903 -155.9513
1.030000 49.890 -156.2365
1.044000 49.874 -156.4974
1.060000 49.851 -156.7885
1.075000 49.824 -157.0537
1.090000 49.793 -157.3114
1.106000 49.756 -157.5843
1.120000 49.721 -157.8331
1.138000 49.674 -158.1742
1.150000 49.640 -158.4148
1.172000 49.574 -158.8804
1.180000 49.549 -159.0568
1.206000 49.459 -159.6530
1.220000 49.406 -159.9861
1.241000 49.319 -160.4981
1.250000 49.279 -160.7209
1.265000 49.209 -161.0953
1.280000 49.133 -161.4718
1.315000 48.934 -162.3462
1.320000 48.903 -162.4694
1.340000 48.771 -162.9539
1.360000 48.626 -163.4203
1.380000 48.468 -163.8613
1.400000 48.296 -164.2692
1.430000 48.009 -164.7992
1.450000 47.797 -165.0851
1.475000 47.504 -165.3636
1.500000 47.166 -165.5818
1.525000 46.784 -165.7537
1.550000 46.363 -165.8760
1.575000 45.911 -165.9420
1.600000 45.436 -165.9433
1.625000 44.944 -165.8694
1.650000 44.445 -165.7072
1.675000 43.944 -165.4409
1.700000 43.451 -165.0508
1.725000 42.972 -164.5126
1.750000 42.515 -163.7964
1.775000 42.088 -162.8653
1.800000 41.698 -161.6732
1.825000 41.348 -160.1607
1.850000 41.024 -158.2396
1.875000 40.702 -155.7908
1.900000 40.377 -152.6823
1.925000 40.055 -148.7594
1.950000 39.742 -143.8405
1.975000 39.446 -137.7397
2.000000 39.173 -130.3202
2.030000 38.887 -119.7038
2.060000 38.658 -107.7474
2.090000 38.499 -95.5640
2.120000 38.423 -84.3744
2.140000 38.424 -77.8604
2.180000 38.570 -67.3395
2.200000 38.726 -63.2207
2.240000 39.236 -56.7933
2.270000 39.784 -53.2031
2.300000 40.449 -50.3925
2.330000 41.204 -48.1710
2.360000 42.023 -46.3939
2.400000 43.167 -44.5305
2.430000 44.032 -43.4111
2.470000 45.145 -42.1808
2.500000 45.917 -41.4008
2.540000 46.821 -40.4941
2.580000 47.568 -39.7122
2.620000 48.205 -39.0649
2.650000 48.634 -38.6602
2.690000 49.153 -38.2037
2.720000 49.511 -37.9087
2.760000 49.954 -37.5602
2.800000 50.371 -37.2468
2.850000 50.873 -36.8823
2.900000 51.376 -36.5277
2.950000 51.886 -36.1621
3.000000 52.381 -35.7735
3.040000 52.760 -35.4591
3.070000 53.035 -35.2316
3.110000 53.393 -34.9509
3.150000 53.742 -34.7076
3.200000 54.172 -34.4721
3.250000 54.598 -34.3266
3.300000 55.026 -34.2674
3.350000 55.454 -34.2469
3.400000 55.877 -34.2398
3.450000 56.295 -34.2684
3.500000 56.707 -34.3604
3.550000 57.110 -34.5390
3.600000 57.506 -34.8223
3.650000 57.891 -35.2182
3.700000 58.269 -35.7055
3.750000 58.640 -36.2483
3.820000 59.146 -37.0850
3.870000 59.496 -37.7425
3.950000 60.032 -38.9135
4.000000 60.350 -39.7295
4.060000 60.713 -40.8021
4.120000 61.059 -41.9675
4.180000 61.387 -43.1976
4.250000 61.747 -44.6782
4.310000 62.036 -45.9636
4.370000 62.305 -47.2556
4.440000 62.594 -48.7983
4.500000 62.819 -50.1790
4.550000 62.993 -51.3558
4.620000 63.215 -52.9997
4.680000 63.386 -54.3688
4.750000 63.566 -55.8912
4.820000 63.722 -57.3654
4.870000 63.817 -58.4175
4.940000 63.932 -59.8731
5.000000 64.015 -61.0710
5.080000 64.111 -62.5388
5.150000 64.180 -63.6743
5.220000 64.232 -64.7004
5.300000 64.273 -65.7650
5.380000 64.305 -66.6987
5.450000 64.335 -67.3845
5.520000 64.370 -67.9248
5.600000 64.411 -68.3587
5.700000 64.467 -68.6865
5.800000 64.548 -68.8754
5.900000 64.671 -68.9731
6.000000 64.835 -68.9379
6.080000 64.990 -68.8827
6.150000 65.142 -68.8956
6.220000 65.308 -69.0109
6.300000 65.520 -69.2529
6.400000 65.813 -69.6814
6.500000 66.121 -70.3123
6.600000 66.425 -71.2251
6.700000 66.726 -72.4179
6.800000 67.022 -73.8260
6.900000 67.298 -75.4081
7.000000 67.546 -77.1694
7.100000 67.766 -79.1238
7.200000 67.957 -81.1966
7.300000 68.115 -83.2990
7.400000 68.237 -85.4341
7.500000 68.323 -87.6288
7.620000 68.385 -90.2252
7.750000 68.400 -92.8590
7.880000 68.361 -95.3522
8.000000 68.291 -97.4600
8.120000 68.195 -99.2719
8.250000 68.065 -100.9124
8.380000 67.928 -102.2265
8.500000 67.812 -103.1056
8.620000 67.709 -103.6665
8.750000 67.628 -104.0270
8.850000 67.599 -104.1778
9.000000 67.608 -104.2198
9.120000 67.658 -104.2371
9.250000 67.753 -104.3556
9.380000 67.886 -104.5870
9.500000 68.025 -104.9553
9.620000 68.171 -105.5104
9.750000 68.331 -106.2922
9.880000 68.477 -107.2189
10.000000 68.589 -108.1914
10.150000 68.701 -109.5203
10.300000 68.782 -110.8770
10.440000 68.830 -112.1423
10.600000 68.862 -113.5382
10.750000 68.877 -114.7499
10.900000 68.880 -115.8744
11.060000 68.881 -116.9783
11.200000 68.880 -117.8695
11.380000 68.879 -118.9535
11.500000 68.878 -119.6511
11.720000 68.871 -120.8844
11.800000 68.864 -121.3216
12.060000 68.823 -122.6596
12.200000 68.787 -123.2885
12.410000 68.721 -124.0634
12.500000 68.693 -124.3130
12.650000 68.652 -124.6125
12.800000 68.622 -124.7795
13.150000 68.627 -124.7789
13.200000 68.638 -124.7649
13.400000 68.707 -124.7416
13.600000 68.803 -124.8728
13.800000 68.909 -125.2273
14.000000 69.001 -125.7847
14.300000 69.074 -126.8215
14.500000 69.070 -127.4367
14.750000 69.025 -127.8644
15.000000 68.980 -127.7696
15.250000 68.999 -127.2039
15.500000 69.127 -126.5240
15.750000 69.366 -126.1853
16.000000 69.668 -126.5878
16.250000 69.954 -127.8388
16.500000 70.157 -129.7812
16.750000 70.226 -132.0765
17.000000 70.148 -134.2673
17.250000 69.945 -135.9259
17.500000 69.672 -136.6823
17.750000 69.421 -136.4124
18.000000 69.281 -135.3511
18.250000 69.306 -134.0594
18.500000 69.477 -133.2102
18.750000 69.715 -133.2035
19.000000 69.930 -134.0901
19.250000 70.046 -135.5996
19.500000 70.031 -137.3155
19.750000 69.886 -138.8023
20.000000 69.644 -139.6529
20.299999 69.319 -139.4980
20.600000 69.083 -138.1023
20.900000 69.037 -136.0524
21.200001 69.190 -134.2148
21.400000 69.365 -133.4302
21.799999 69.756 -133.1058
22.000000 69.929 -133.4530
22.400000 70.192 -134.7149
22.700001 70.323 -135.8767
23.000000 70.415 -137.1031
23.299999 70.476 -138.3895
23.600000 70.503 -139.7459
24.000000 70.460 -141.5700
24.299999 70.357 -142.7631
24.700001 70.142 -143.7325
25.000000 69.965 -143.7741
25.400000 69.805 -142.8872
25.799999 69.828 -141.4307
26.200001 70.054 -140.3349
26.500000 70.303 -140.2135
26.900000 70.632 -141.1499
27.200001 70.813 -142.5124
27.600000 70.915 -144.7381
28.000000 70.850 -146.8312
28.500000 70.609 -148.4341
29.000000 70.350 -148.5178
29.500000 70.237 -147.5888
30.000000 70.302 -146.7363
30.400000 70.412 -146.6147
30.700001 70.483 -146.8566
31.100000 70.527 -147.3953
31.500000 70.515 -147.8521
32.000000 70.488 -147.9896
32.500000 70.541 -147.9063
33.000000 70.677 -148.3611
33.500000 70.769 -149.7115
34.000000 70.688 -151.3284
34.500000 70.445 -151.9904
35.000000 70.241 -150.9410
35.500000 70.316 -148.9665
36.000000 70.677 -147.8792
36.500000 71.095 -148.5983
37.000000 71.367 -150.5858
37.500000 71.443 -152.7664
38.200001 71.354 -154.8176
38.700001 71.270 -155.4561
39.500000 71.187 -155.6858
40.000000 71.167 -155.5784
40.599998 71.175 -155.3726
41.200001 71.200 -155.2802
41.799999 71.202 -155.2770
42.500000 71.181 -155.1126
43.099998 71.187 -154.9090
43.700001 71.205 -154.9776
44.400002 71.163 -155.3356
45.000000 71.070 -155.3617
45.500000 71.010 -155.0429
46.200001 71.019 -154.5532
46.799999 71.075 -154.5639
47.500000 71.109 -155.0252
48.200001 71.088 -155.5071
48.700001 71.061 -155.6738
49.400002 71.043 -155.6017
50.000000 71.079 -155.3954
50.799999 71.202 -155.3784
51.500000 71.318 -155.8087
52.200001 71.391 -156.4335
53.000000 71.432 -157.0245
53.799999 71.463 -157.4331
54.500000 71.485 -157.7278
55.200001 71.497 -157.9327
56.000000 71.515 -157.9998
57.000000 71.568 -158.1278
58.000000 71.591 -158.4819
59.000000 71.583 -158.5580
60.000000 71.618 -158.5766
60.799999 71.637 -158.7741
61.500000 71.637 -158.8577
62.200001 71.651 -158.8410
63.000000 71.685 -158.8986
64.000000 71.719 -159.0702
65.000000 71.751 -159.2496
66.000000 71.778 -159.4003
67.000000 71.829 -159.6114
68.000000 71.837 -160.1464
69.000000 71.780 -160.1006
70.000000 71.836 -159.5793
71.000000 71.952 -159.7137
72.000000 72.020 -160.1440
73.000000 72.072 -160.5529
74.000000 72.106 -160.9789
75.000000 72.132 -161.3156
76.199997 72.160 -161.6529
77.500000 72.193 -161.7909
78.800003 72.257 -161.9084
80.000000 72.302 -162.2524
81.199997 72.290 -162.4948
82.500000 72.298 -162.4320
83.800003 72.342 -162.5731
85.000000 72.383 -162.8890
86.199997 72.427 -163.1804
87.500000 72.489 -163.5024
88.500000 72.533 -163.7049
90.000000 72.595 -163.9257
91.199997 72.635 -164.1240
92.500000 72.633 -164.4565
93.800003 72.628 -164.3495
95.000000 72.694 -164.5538
96.199997 72.710 -165.1568
97.500000 72.694 -165.3704
98.800003 72.737 -165.3403
100.000000 72.798 -165.6592
101.500000 72.817 -166.2775
103.000000 72.817 -166.6438
104.400002 72.849 -166.8651
106.000000 72.928 -167.0356
107.500000 73.008 -167.2497
109.000000 73.059 -167.3336
110.599998 73.082 -167.3916
112.000000 73.086 -167.4574
113.800003 73.091 -167.7619
115.000000 73.094 -168.0238
117.199997 73.124 -168.2865
118.000000 73.149 -168.3681
120.599998 73.213 -168.7988
122.000000 73.235 -169.0738
124.099998 73.254 -169.6304
125.000000 73.266 -169.7984
126.500000 73.295 -170.1223
128.000000 73.311 -170.2659
131.500000 73.424 -170.3900
132.000000 73.425 -170.5217
134.000000 73.391 -170.7319
136.000000 73.434 -170.5671
138.000000 73.555 -170.7992
140.000000 73.658 -171.2076
143.000000 73.685 -171.6430
145.000000 73.653 -171.8704
147.500000 73.621 -172.5134
150.000000 73.642 -173.1087
152.500000 73.697 -173.4131
155.000000 73.729 -173.6313
157.500000 73.744 -173.9267
160.000000 73.785 -174.3554
162.500000 73.819 -174.7467
165.000000 73.826 -174.9629
167.500000 73.828 -175.1507
170.000000 73.840 -175.4931
172.500000 73.850 -175.8283
175.000000 73.872 -176.0812
177.500000 73.897 -176.3855
180.000000 73.905 -176.7343
182.500000 73.897 -177.0448
185.000000 73.894 -177.3522
187.500000 73.895 -177.6671
190.000000 73.894 -177.9381
192.500000 73.891 -178.1865
195.000000 73.887 -178.4389
197.500000 73.884 -178.6672
200.000000 73.882 -178.9019
203.000000 73.881 -179.2657
206.000000 73.887 -179.5586
209.000000 73.910 -179.7885
212.000000 73.929 179.9665
214.000000 73.934 179.7539
218.000000 73.939 179.3783
220.000000 73.947 179.2566
224.000000 73.966 179.0110
227.000000 73.967 178.7623
230.000000 73.965 178.5121
233.000000 73.970 178.2469
236.000000 73.978 177.9523
240.000000 73.984 177.6043
243.000000 73.983 177.4982
247.000000 73.978 177.3970
250.000000 73.976 177.3362
254.000000 73.982 177.2501
258.000000 73.986 177.0766
262.000000 73.990 176.8521
265.000000 74.004 176.6282
269.000000 74.029 176.2029
272.000000 74.037 175.9693
276.000000 74.028 175.8150
280.000000 74.006 175.6667
285.000000 74.000 175.5612
290.000000 73.988 175.3149
295.000000 73.971 175.2458
300.000000 73.967 175.2132
304.000000 73.961 175.1115
307.000000 73.947 174.9893
311.000000 73.925 174.8760
315.000000 73.912 174.9301
320.000000 73.901 175.0781
325.000000 73.893 175.1768
330.000000 73.892 175.3210
335.000000 73.903 175.5206
340.000000 73.928 175.6743
345.000000 73.971 175.8405
350.000000 73.996 176.0282
355.000000 74.010 176.0736
360.000000 74.043 176.2490
365.000000 74.084 176.5341
370.000000 74.120 176.7209
375.000000 74.173 176.8495
382.000000 74.268 177.1601
387.000000 74.331 177.3811
395.000000 74.446 177.4825
400.000000 74.522 177.4595
406.000000 74.612 177.4188
412.000000 74.710 177.4073
418.000000 74.811 177.3302
425.000000 74.921 177.1373
431.000000 75.017 176.9279
437.000000 75.110 176.7341
444.000000 75.213 176.4890
450.000000 75.296 176.2484
455.000000 75.367 176.0320
462.000000 75.463 175.6956
468.000000 75.546 175.3798
475.000000 75.647 175.0029
482.000000 75.746 174.5944
487.000000 75.814 174.2915
494.000000 75.902 173.8641
500.000000 75.971 173.4995
508.000000 76.061 172.9744
515.000000 76.136 172.4908
522.000000 76.205 172.0339
530.000000 76.282 171.5183
538.000000 76.358 171.0500
545.000000 76.416 170.6759
552.000000 76.473 170.2360
560.000000 76.541 169.6972
570.000000 76.630 169.0859
580.000000 76.720 168.4935
590.000000 76.806 167.8942
600.000000 76.891 167.2654
608.000000 76.958 166.7484
615.000000 77.015 166.3046
622.000000 77.069 165.8771
630.000000 77.128 165.3906
640.000000 77.202 164.7997
650.000000 77.277 164.2447
660.000000 77.347 163.6449
670.000000 77.414 163.0569
680.000000 77.472 162.5045
690.000000 77.531 161.9346
700.000000 77.596 161.4028
710.000000 77.665 160.8954
720.000000 77.734 160.3824
730.000000 77.805 159.8720
740.000000 77.875 159.3724
750.000000 77.942 158.8641
762.000000 78.023 158.2488
775.000000 78.114 157.5635
788.000000 78.202 156.8944
800.000000 78.281 156.3015
812.000000 78.355 155.7072
825.000000 78.431 155.0791
838.000000 78.510 154.4679
850.000000 78.589 153.9307
862.000000 78.673 153.4263
875.000000 78.774 152.8836
885.000000 78.857 152.4523
900.000000 78.978 151.8232
912.000000 79.081 151.2963
925.000000 79.207 150.6638
938.000000 79.332 150.0516
950.000000 79.441 149.4926
962.000000 79.547 148.9249
975.000000 79.661 148.2870
988.000000 79.781 147.6153
1000.000000 79.900 146.9722
1015.000000 80.063 146.1052
1030.000000 80.227 145.1856
1044.000000 80.371 144.2938
1060.000000 80.528 143.2268
1075.000000 80.670 142.1967
1090.000000 80.810 141.1141
1106.000000 80.969 139.9064
1120.000000 81.122 138.7843
1138.000000 81.317 137.2922
1150.000000 81.436 136.2948
1172.000000 81.634 134.4123
1180.000000 81.702 133.7173
1206.000000 81.910 131.4125
1220.000000 82.016 130.1522
1241.000000 82.172 128.2513
1250.000000 82.240 127.4296
1265.000000 82.350 126.0514
1280.000000 82.457 124.6724
1315.000000 82.681 121.4777
1320.000000 82.711 121.0206
1340.000000 82.826 119.1866
1360.000000 82.938 117.3654
1380.000000 83.040 115.5606
1400.000000 83.135 113.7722
1430.000000 83.264 111.1345
1450.000000 83.345 109.4181
1475.000000 83.450 107.2930
1500.000000 83.556 105.2123
1525.000000 83.661 103.1695
1550.000000 83.762 101.1572
1575.000000 83.857 99.1738
1600.000000 83.951 97.2085
1625.000000 84.047 95.2514
1650.000000 84.142 93.3187
1675.000000 84.234 91.3987
1700.000000 84.325 89.4811
1725.000000 84.419 87.5679
1750.000000 84.513 85.6679
1775.000000 84.608 83.7798
1800.000000 84.705 81.8995
1825.000000 84.805 80.0181
1850.000000 84.905 78.1329
1875.000000 85.006 76.2480
1900.000000 85.109 74.3565
1925.000000 85.215 72.4590
1950.000000 85.324 70.5586
1975.000000 85.436 68.6495
2000.000000 85.551 66.7184
2030.000000 85.690 64.3767
2060.000000 85.830 62.0041
2090.000000 85.977 59.5883
2120.000000 86.127 57.1389
2140.000000 86.227 55.4848
2180.000000 86.427 52.1246
2200.000000 86.530 50.4107
2240.000000 86.745 46.8860
2270.000000 86.899 44.1889
2300.000000 87.041 41.5130
2330.000000 87.178 39.0771
2360.000000 87.319 36.9535
2400.000000 87.488 33.8476
2430.000000 87.605 31.2689
2470.000000 87.752 27.7026
2500.000000 87.853 24.9662
2540.000000 87.973 21.2603
2580.000000 88.068 17.5116
2620.000000 88.133 13.8290
2650.000000 88.166 11.3617
2690.000000 88.196 8.5740
2720.000000 88.194 6.3951
2760.000000 88.166 3.2883
2800.000000 88.117 0.1793
2850.000000 88.022 -3.5982
2900.000000 87.891 -7.2189
2950.000000 87.728 -10.6519
3000.000000 87.536 -13.8719
3040.000000 87.369 -16.2881
3070.000000 87.237 -18.0060
3110.000000 87.051 -20.1675
3150.000000 86.853 -22.1809
3200.000000 86.589 -24.4858
3250.000000 86.317 -26.5536
3300.000000 86.046 -28.3917
3350.000000 85.782 -30.0153
3400.000000 85.525 -31.4374
3450.000000 85.276 -32.6757
3500.000000 85.034 -33.7567
3550.000000 84.801 -34.6989
3600.000000 84.579 -35.5176
3650.000000 84.368 -36.2181
3700.000000 84.171 -36.8041
3750.000000 83.987 -37.2862
3820.000000 83.753 -37.8104
3870.000000 83.602 -38.0908
3950.000000 83.392 -38.4082
4000.000000 83.283 -38.5438
4060.000000 83.172 -38.6530
4120.000000 83.080 -38.7224
4180.000000 83.011 -38.7730
4250.000000 82.953 -38.8262
4310.000000 82.918 -38.8753
4370.000000 82.904 -38.9503
4440.000000 82.911 -39.0845
4500.000000 82.929 -39.2684
4550.000000 82.950 -39.4814
4620.000000 82.982 -39.8766
4680.000000 83.016 -40.3392
4750.000000 83.065 -41.0374
4820.000000 83.109 -41.8940
4870.000000 83.130 -42.6034
4940.000000 83.135 -43.7284
5000.000000 83.105 -44.7934
5080.000000 83.005 -46.3113
5150.000000 82.876 -47.6885
5220.000000 82.711 -49.0544
5300.000000 82.475 -50.5217
5380.000000 82.189 -51.7861
5450.000000 81.901 -52.6793
5520.000000 81.584 -53.3398
5600.000000 81.191 -53.7573
5700.000000 80.671 -53.7247
5800.000000 80.142 -53.0673
5900.000000 79.623 -51.7972
6000.000000 79.124 -49.9460
6080.000000 78.751 -48.0605
6150.000000 78.452 -46.1396
6220.000000 78.185 -43.9944
6300.000000 77.928 -41.3025
6400.000000 77.692 -37.6107
6500.000000 77.546 -33.6143
6600.000000 77.486 -29.4058
6700.000000 77.518 -25.0629
6800.000000 77.644 -20.6493
6900.000000 77.872 -16.2668
7000.000000 78.210 -12.0417
7100.000000 78.672 -8.1606
7200.000000 79.245 -4.9757
7300.000000 79.876 -2.7197
7400.000000 80.527 -1.3030
7500.000000 81.191 -0.7578
7620.000000 81.961 -1.4620
7750.000000 82.662 -3.9291
7880.000000 83.108 -7.7039
8000.000000 83.224 -11.5756
8120.000000 83.056 -15.1076
8250.000000 82.636 -18.0083
8380.000000 82.084 -19.6925
8500.000000 81.528 -20.1715
8620.000000 80.963 -19.7404
8750.000000 80.384 -18.4518
8850.000000 79.977 -16.9970
9000.000000 79.435 -14.2676
9120.000000 79.062 -11.8322
9250.000000 78.713 -9.2040
9380.000000 78.402 -6.7614
9500.000000 78.121 -4.6844
9620.000000 77.827 -2.6848
9750.000000 77.483 -0.5179
9880.000000 77.104 1.7424
10000.000000 76.729 4.0323
10150.000000 76.250 7.3057
10300.000000 75.774 11.1296
10440.000000 75.344 15.1937
10600.000000 74.890 20.3904
10750.000000 74.519 25.7051
10900.000000 74.211 31.3338
11060.000000 73.956 37.5888
11200.000000 73.796 43.2160
11380.000000 73.688 50.5401
11500.000000 73.680 55.3777
11720.000000 73.796 63.8667
11800.000000 73.877 66.7736
12060.000000 74.277 75.2148
12200.000000 74.545 78.8647
12410.000000 74.930 82.7988
12500.000000 75.056 83.8824
12650.000000 75.162 85.0357
12800.000000 75.110 85.7133
13150.000000 74.368 87.9901
13200.000000 74.208 88.5750
13400.000000 73.489 91.7838
13600.000000 72.712 96.3787
13800.000000 71.941 102.1673
14000.000000 71.225 108.9295
14300.000000 70.322 120.4840
14500.000000 69.872 128.7577
14750.000000 69.504 139.0007
15000.000000 69.300 148.4847
15250.000000 69.148 156.9343
15500.000000 68.948 164.6228
15750.000000 68.696 172.3567
16000.000000 68.543 -179.2552
16250.000000 68.716 -170.5739
16500.000000 69.276 -163.1361
16750.000000 70.096 -159.2143
17000.000000 70.792 -160.6140
17250.000000 70.798 -166.7807
17500.000000 69.713 -174.1417
17750.000000 67.590 -178.3315
18000.000000 64.755 -176.8053
18250.000000 61.515 -167.8426
18500.000000 58.448 -144.4527
18750.000000 57.942 -102.0510
19000.000000 59.837 -83.0421
19250.000000 60.924 -82.3891
19500.000000 60.771 -82.8627
19750.000000 60.099 -80.0291
20000.000000 59.594 -76.1046
