* Measurement data measured by REW V5.31.3
* Source: Headset (Odo By VECLAN.COM), MICROPHONE (Master Volume), R, volume: 0.250
* Format: 1M Log Swept Sine, 1 sweep at -12.0 dBFS with no timing reference
* Dated: 02 6, 25 8:53:58 PM
* REW Settings:
*  C-weighting compensation: Off
*  Target level: 75.0 dB
* Note: ; 
* Measurement: vsk6-6 R
* Smoothing: 1/24 octave
* Frequency Step: 1/48 octave
* Start Frequency: 1.000 Hz
*
* Freq(Hz) SPL(dB) Phase(degrees)
1.000000 46.762 155.4460
1.015000 47.064 154.1793
1.030000 47.363 152.9012
1.044000 47.641 151.6956
1.060000 47.955 150.3001
1.075000 48.248 148.9727
1.090000 48.539 147.6271
1.106000 48.847 146.1835
1.120000 49.114 144.9360
1.138000 49.454 143.3706
1.150000 49.678 142.3521
1.172000 50.084 140.5352
1.180000 50.230 139.8898
1.206000 50.700 137.8449
1.220000 50.950 136.7743
1.241000 51.321 135.2040
1.250000 51.479 134.5429
1.265000 51.740 133.4552
1.280000 51.998 132.3832
1.315000 52.593 129.9322
1.320000 52.677 129.5867
1.340000 53.011 128.2138
1.360000 53.341 126.8520
1.380000 53.669 125.4975
1.400000 53.993 124.1465
1.430000 54.474 122.1194
1.450000 54.791 120.7647
1.475000 55.183 119.0793
1.500000 55.570 117.4413
1.525000 55.950 115.8640
1.550000 56.325 114.3405
1.575000 56.694 112.8614
1.600000 57.058 111.4172
1.625000 57.416 109.9993
1.650000 57.770 108.5992
1.675000 58.119 107.2093
1.700000 58.463 105.8224
1.725000 58.803 104.4323
1.750000 59.138 103.0329
1.775000 59.470 101.6190
1.800000 59.798 100.1862
1.825000 60.123 98.7341
1.850000 60.443 97.2754
1.875000 60.759 95.8310
1.900000 61.070 94.4091
1.925000 61.376 93.0103
1.950000 61.678 91.6336
1.975000 61.976 90.2772
2.000000 62.269 88.9387
2.030000 62.616 87.3523
2.060000 62.957 85.7825
2.090000 63.293 84.2238
2.120000 63.625 82.6704
2.140000 63.843 81.6349
2.180000 64.273 79.5576
2.200000 64.485 78.5154
2.240000 64.902 76.4370
2.270000 65.209 74.8947
2.300000 65.510 73.3706
2.330000 65.805 71.8658
2.360000 66.096 70.3798
2.400000 66.476 68.4258
2.430000 66.756 66.9782
2.470000 67.122 65.0668
2.500000 67.392 63.6432
2.540000 67.746 61.7520
2.580000 68.092 59.8623
2.620000 68.431 57.9758
2.650000 68.680 56.5680
2.690000 69.004 54.7064
2.720000 69.243 53.3245
2.760000 69.554 51.5033
2.800000 69.859 49.7071
2.850000 70.231 47.4951
2.900000 70.593 45.3145
2.950000 70.946 43.1522
3.000000 71.289 40.9940
3.040000 71.555 39.2742
3.070000 71.750 37.9927
3.110000 72.006 36.3000
3.150000 72.255 34.6291
3.200000 72.559 32.5748
3.250000 72.855 30.5598
3.300000 73.143 28.5779
3.350000 73.422 26.6099
3.400000 73.693 24.6473
3.450000 73.955 22.6996
3.500000 74.210 20.7774
3.550000 74.457 18.8889
3.600000 74.697 17.0396
3.650000 74.931 15.2298
3.700000 75.159 13.4463
3.750000 75.379 11.6735
3.820000 75.676 9.2139
3.870000 75.881 7.4841
3.950000 76.196 4.7836
4.000000 76.387 3.1444
4.060000 76.610 1.2198
4.120000 76.825 -0.6800
4.180000 77.032 -2.5579
4.250000 77.265 -4.7095
4.310000 77.458 -6.5099
4.370000 77.646 -8.2635
4.440000 77.859 -10.2583
4.500000 78.035 -11.9398
4.550000 78.177 -13.3226
4.620000 78.371 -15.2250
4.680000 78.533 -16.8187
4.750000 78.716 -18.6310
4.820000 78.895 -20.3998
4.870000 79.019 -21.6436
4.940000 79.189 -23.3582
5.000000 79.330 -24.8004
5.080000 79.513 -26.6792
5.150000 79.670 -28.2822
5.220000 79.822 -29.8553
5.300000 79.992 -31.6210
5.380000 80.156 -33.3487
5.450000 80.296 -34.8260
5.520000 80.432 -36.2721
5.600000 80.584 -37.8945
5.700000 80.768 -39.8796
5.800000 80.945 -41.8090
5.900000 81.117 -43.6792
6.000000 81.282 -45.5011
6.080000 81.411 -46.9250
6.150000 81.521 -48.1438
6.220000 81.630 -49.3350
6.300000 81.751 -50.6644
6.400000 81.900 -52.2848
6.500000 82.046 -53.8622
6.600000 82.191 -55.3966
6.700000 82.335 -56.8877
6.800000 82.477 -58.3423
6.900000 82.620 -59.7717
7.000000 82.764 -61.1812
7.100000 82.908 -62.5690
7.200000 83.052 -63.9437
7.300000 83.196 -65.3191
7.400000 83.340 -66.7009
7.500000 83.483 -68.0869
7.620000 83.652 -69.7609
7.750000 83.828 -71.6026
7.880000 83.998 -73.4756
8.000000 84.145 -75.2168
8.120000 84.280 -76.9678
8.250000 84.413 -78.8810
8.380000 84.529 -80.7736
8.500000 84.621 -82.4850
8.620000 84.697 -84.1671
8.750000 84.764 -85.9166
8.850000 84.805 -87.1901
9.000000 84.850 -88.9897
9.120000 84.877 -90.3114
9.250000 84.901 -91.5991
9.380000 84.923 -92.7455
9.500000 84.946 -93.6870
9.620000 84.979 -94.5127
9.750000 85.023 -95.2939
9.880000 85.079 -96.0051
10.000000 85.141 -96.6177
10.150000 85.233 -97.3556
10.300000 85.342 -98.1450
10.440000 85.459 -98.9519
10.600000 85.602 -99.9924
10.750000 85.739 -101.1180
10.900000 85.873 -102.3741
11.060000 86.002 -103.8455
11.200000 86.098 -105.2324
11.380000 86.194 -107.0809
11.500000 86.238 -108.3354
11.720000 86.277 -110.6010
11.800000 86.278 -111.3900
12.060000 86.243 -113.7783
12.200000 86.206 -114.9061
12.410000 86.138 -116.3746
12.500000 86.111 -116.9186
12.650000 86.071 -117.7142
12.800000 86.041 -118.3948
13.150000 86.011 -119.6536
13.200000 86.011 -119.8120
13.400000 86.025 -120.4233
13.600000 86.052 -121.0350
13.800000 86.088 -121.6754
14.000000 86.126 -122.3464
14.300000 86.178 -123.3899
14.500000 86.209 -124.0828
14.750000 86.243 -124.9213
15.000000 86.278 -125.7219
15.250000 86.318 -126.4985
15.500000 86.363 -127.2813
15.750000 86.413 -128.0977
16.000000 86.464 -128.9658
16.250000 86.512 -129.8826
16.500000 86.553 -130.8311
16.750000 86.584 -131.7860
17.000000 86.607 -132.7245
17.250000 86.626 -133.6356
17.500000 86.643 -134.5187
17.750000 86.659 -135.3850
18.000000 86.676 -136.2462
18.250000 86.691 -137.1097
18.500000 86.703 -137.9730
18.750000 86.709 -138.8230
19.000000 86.710 -139.6415
19.250000 86.708 -140.4099
19.500000 86.706 -141.1193
19.750000 86.708 -141.7723
20.000000 86.717 -142.3848
20.299999 86.739 -143.1011
20.600000 86.771 -143.8373
20.900000 86.807 -144.6206
21.200001 86.840 -145.4515
21.400000 86.858 -146.0197
21.799999 86.878 -147.1382
22.000000 86.882 -147.6652
22.400000 86.885 -148.6204
22.700001 86.890 -149.2530
23.000000 86.901 -149.8403
23.299999 86.919 -150.4175
23.600000 86.942 -151.0158
24.000000 86.973 -151.8727
24.299999 86.990 -152.5545
24.700001 86.999 -153.4796
25.000000 86.995 -154.1530
25.400000 86.979 -154.9787
25.799999 86.957 -155.6899
26.200001 86.940 -156.2856
26.500000 86.937 -156.6828
26.900000 86.951 -157.2121
27.200001 86.972 -157.6580
27.600000 87.004 -158.3604
28.000000 87.026 -159.1674
28.500000 87.026 -160.1906
29.000000 87.007 -161.0653
29.500000 87.000 -161.7709
30.000000 87.016 -162.4542
30.400000 87.036 -163.0713
30.700001 87.045 -163.5703
31.100000 87.046 -164.2286
31.500000 87.037 -164.8160
32.000000 87.029 -165.4271
32.500000 87.035 -165.9808
33.000000 87.048 -166.5696
33.500000 87.055 -167.1929
34.000000 87.054 -167.7946
34.500000 87.054 -168.3582
35.000000 87.059 -168.9318
35.500000 87.063 -169.5581
36.000000 87.056 -170.2129
36.500000 87.039 -170.8261
37.000000 87.023 -171.3641
37.500000 87.019 -171.8777
38.200001 87.025 -172.6919
38.700001 87.018 -173.3098
39.500000 87.003 -174.1320
40.000000 87.017 -174.6082
40.599998 87.046 -175.3788
41.200001 87.033 -176.2980
41.799999 86.974 -176.9623
42.500000 86.940 -177.2795
43.099998 86.974 -177.6956
43.700001 86.986 -178.5113
44.400002 86.906 -179.3629
45.000000 86.830 -179.5149
45.500000 86.829 -179.4301
46.200001 86.913 -179.6830
46.799999 86.985 179.5779
47.500000 87.016 178.4490
48.200001 87.004 177.3558
48.700001 86.980 176.6655
49.400002 86.937 175.8680
50.000000 86.904 175.3448
50.799999 86.878 174.8032
51.500000 86.872 174.3898
52.200001 86.872 173.9688
53.000000 86.867 173.4694
53.799999 86.852 172.9976
54.500000 86.836 172.5952
55.200001 86.816 172.1683
56.000000 86.786 171.6652
57.000000 86.748 171.0310
58.000000 86.713 170.3492
59.000000 86.677 169.6537
60.000000 86.646 169.0212
60.799999 86.631 168.5152
61.500000 86.613 168.0521
62.200001 86.588 167.6296
63.000000 86.560 167.2263
64.000000 86.531 166.7488
65.000000 86.506 166.3224
66.000000 86.508 165.8500
67.000000 86.507 165.2080
68.000000 86.505 164.6445
69.000000 86.523 164.0118
70.000000 86.513 163.3304
71.000000 86.494 162.8661
72.000000 86.480 162.4205
73.000000 86.451 161.9855
74.000000 86.421 161.5560
75.000000 86.383 161.0259
76.199997 86.326 160.3622
77.500000 86.273 159.6625
78.800003 86.251 158.9707
80.000000 86.240 158.1824
81.199997 86.206 157.4728
82.500000 86.169 156.9199
83.800003 86.138 156.4224
85.000000 86.105 155.9472
86.199997 86.070 155.4655
87.500000 86.032 154.9264
88.500000 86.005 154.5009
90.000000 85.965 153.8168
91.199997 85.929 153.3079
92.500000 85.895 152.7729
93.800003 85.859 152.2355
95.000000 85.826 151.7389
96.199997 85.791 151.2663
97.500000 85.759 150.7725
98.800003 85.723 150.2394
100.000000 85.686 149.8015
101.500000 85.643 149.2578
103.000000 85.599 148.6874
104.400002 85.552 148.1605
106.000000 85.504 147.6257
107.500000 85.459 147.1205
109.000000 85.417 146.6606
110.599998 85.367 146.0996
112.000000 85.316 145.6423
113.800003 85.255 145.0444
115.000000 85.213 144.6658
117.199997 85.147 144.1510
118.000000 85.131 143.9645
120.599998 85.056 143.1716
122.000000 85.002 142.7451
124.099998 84.937 142.1078
125.000000 84.917 141.7994
126.500000 84.885 141.3185
128.000000 84.858 140.9144
131.500000 84.776 139.9841
132.000000 84.757 139.8671
134.000000 84.686 139.4568
136.000000 84.629 139.0269
138.000000 84.581 138.5443
140.000000 84.528 138.0574
143.000000 84.461 137.3332
145.000000 84.419 136.7740
147.500000 84.358 136.1128
150.000000 84.284 135.5909
152.500000 84.209 135.1632
155.000000 84.139 134.7071
157.500000 84.074 134.1840
160.000000 84.006 133.6547
162.500000 83.928 133.1371
165.000000 83.841 132.7001
167.500000 83.756 132.2876
170.000000 83.668 131.8375
172.500000 83.577 131.4035
175.000000 83.491 131.0251
177.500000 83.412 130.6505
180.000000 83.335 130.2888
182.500000 83.255 129.9114
185.000000 83.170 129.5454
187.500000 83.089 129.1705
190.000000 83.010 128.7650
192.500000 82.931 128.3713
195.000000 82.850 128.0303
197.500000 82.768 127.7586
200.000000 82.692 127.4928
203.000000 82.606 127.1393
206.000000 82.526 126.7760
209.000000 82.449 126.4382
212.000000 82.375 126.1328
214.000000 82.329 125.9527
218.000000 82.239 125.6056
220.000000 82.190 125.4227
224.000000 82.090 125.0243
227.000000 82.016 124.7628
230.000000 81.938 124.5438
233.000000 81.858 124.3049
236.000000 81.781 124.0135
240.000000 81.691 123.7159
243.000000 81.622 123.5921
247.000000 81.524 123.4321
250.000000 81.456 123.2557
254.000000 81.381 122.9541
258.000000 81.306 122.6354
262.000000 81.217 122.3435
265.000000 81.143 122.1217
269.000000 81.034 121.8349
272.000000 80.947 121.6332
276.000000 80.831 121.3691
280.000000 80.711 121.1794
285.000000 80.557 121.1725
290.000000 80.414 121.2507
295.000000 80.286 121.3367
300.000000 80.179 121.4086
304.000000 80.099 121.4194
307.000000 80.034 121.4507
311.000000 79.939 121.5250
315.000000 79.849 121.6458
320.000000 79.746 121.9182
325.000000 79.645 122.2167
330.000000 79.555 122.5553
335.000000 79.473 123.0751
340.000000 79.412 123.6572
345.000000 79.380 124.2457
350.000000 79.365 124.7743
355.000000 79.363 125.1370
360.000000 79.368 125.3705
365.000000 79.367 125.5278
370.000000 79.354 125.6350
375.000000 79.329 125.7242
382.000000 79.293 125.9213
387.000000 79.280 126.1260
395.000000 79.276 126.4210
400.000000 79.282 126.6110
406.000000 79.290 126.7776
412.000000 79.302 126.8812
418.000000 79.318 127.0000
425.000000 79.342 127.1880
431.000000 79.373 127.2808
437.000000 79.412 127.2757
444.000000 79.453 127.1662
450.000000 79.480 127.0471
455.000000 79.496 126.9334
462.000000 79.512 126.7655
468.000000 79.525 126.6440
475.000000 79.546 126.4716
482.000000 79.569 126.2449
487.000000 79.586 126.0970
494.000000 79.604 125.9009
500.000000 79.617 125.7080
508.000000 79.630 125.4186
515.000000 79.638 125.1822
522.000000 79.640 125.0137
530.000000 79.638 124.8616
538.000000 79.639 124.7067
545.000000 79.646 124.5450
552.000000 79.658 124.3911
560.000000 79.674 124.1890
570.000000 79.696 123.9194
580.000000 79.714 123.6696
590.000000 79.733 123.4429
600.000000 79.755 123.1917
608.000000 79.769 123.0023
615.000000 79.777 122.8687
622.000000 79.787 122.7656
630.000000 79.801 122.6196
640.000000 79.826 122.3456
650.000000 79.848 122.0914
660.000000 79.867 121.9250
670.000000 79.891 121.7450
680.000000 79.922 121.4956
690.000000 79.951 121.1938
700.000000 79.972 120.9237
710.000000 79.988 120.6678
720.000000 80.003 120.4492
730.000000 80.015 120.2747
740.000000 80.030 120.1263
750.000000 80.053 119.9689
762.000000 80.090 119.7817
775.000000 80.138 119.5594
788.000000 80.185 119.3620
800.000000 80.225 119.1819
812.000000 80.266 119.0125
825.000000 80.320 118.8629
838.000000 80.376 118.6857
850.000000 80.433 118.5316
862.000000 80.499 118.3505
875.000000 80.574 118.1298
885.000000 80.629 117.9633
900.000000 80.705 117.7235
912.000000 80.765 117.5479
925.000000 80.836 117.3544
938.000000 80.919 117.1693
950.000000 81.003 116.9874
962.000000 81.094 116.7766
975.000000 81.195 116.5118
988.000000 81.299 116.2132
1000.000000 81.396 115.9155
1015.000000 81.523 115.4922
1030.000000 81.652 115.0387
1044.000000 81.771 114.5871
1060.000000 81.905 114.0298
1075.000000 82.031 113.4493
1090.000000 82.161 112.8268
1106.000000 82.301 112.1113
1120.000000 82.423 111.4370
1138.000000 82.576 110.5178
1150.000000 82.675 109.8732
1172.000000 82.853 108.6538
1180.000000 82.916 108.1940
1206.000000 83.113 106.6395
1220.000000 83.211 105.7753
1241.000000 83.348 104.4720
1250.000000 83.405 103.9131
1265.000000 83.497 102.9874
1280.000000 83.587 102.0643
1315.000000 83.788 99.8804
1320.000000 83.815 99.5668
1340.000000 83.917 98.3110
1360.000000 84.009 97.0620
1380.000000 84.092 95.8229
1400.000000 84.171 94.6148
1430.000000 84.292 92.8082
1450.000000 84.371 91.6316
1475.000000 84.464 90.2084
1500.000000 84.551 88.8291
1525.000000 84.635 87.4765
1550.000000 84.714 86.1588
1575.000000 84.789 84.8990
1600.000000 84.869 83.6672
1625.000000 84.953 82.4490
1650.000000 85.036 81.2469
1675.000000 85.121 80.0510
1700.000000 85.204 78.8736
1725.000000 85.284 77.7155
1750.000000 85.364 76.5716
1775.000000 85.448 75.4464
1800.000000 85.538 74.3347
1825.000000 85.633 73.2184
1850.000000 85.728 72.0955
1875.000000 85.822 70.9603
1900.000000 85.915 69.8245
1925.000000 86.011 68.6911
1950.000000 86.114 67.5518
1975.000000 86.220 66.4028
2000.000000 86.329 65.2463
2030.000000 86.462 63.8471
2060.000000 86.600 62.4208
2090.000000 86.739 60.9600
2120.000000 86.876 59.4766
2140.000000 86.968 58.4744
2180.000000 87.157 56.4157
2200.000000 87.254 55.3538
2240.000000 87.446 53.1695
2270.000000 87.593 51.4572
2300.000000 87.738 49.6842
2330.000000 87.879 47.8583
2360.000000 88.013 45.9675
2400.000000 88.182 43.3436
2430.000000 88.299 41.3090
2470.000000 88.443 38.5189
2500.000000 88.542 36.3658
2540.000000 88.661 33.4299
2580.000000 88.757 30.4409
2620.000000 88.829 27.4086
2650.000000 88.862 25.1199
2690.000000 88.879 22.0637
2720.000000 88.874 19.7739
2760.000000 88.845 16.7411
2800.000000 88.790 13.7566
2850.000000 88.685 10.1196
2900.000000 88.542 6.6280
2950.000000 88.368 3.3257
3000.000000 88.167 0.2343
3040.000000 87.991 -2.0736
3070.000000 87.852 -3.7025
3110.000000 87.662 -5.7388
3150.000000 87.465 -7.6287
3200.000000 87.203 -9.8007
3250.000000 86.930 -11.7654
3300.000000 86.653 -13.5355
3350.000000 86.381 -15.1440
3400.000000 86.120 -16.5932
3450.000000 85.869 -17.8795
3500.000000 85.623 -18.9974
3550.000000 85.383 -19.9501
3600.000000 85.154 -20.7588
3650.000000 84.938 -21.4365
3700.000000 84.735 -21.9901
3750.000000 84.548 -22.4299
3820.000000 84.316 -22.8999
3870.000000 84.171 -23.1730
3950.000000 83.972 -23.5546
4000.000000 83.866 -23.7714
4060.000000 83.762 -24.0135
4120.000000 83.678 -24.2392
4180.000000 83.612 -24.4434
4250.000000 83.555 -24.6653
4310.000000 83.524 -24.8652
4370.000000 83.510 -25.1041
4440.000000 83.514 -25.4539
4500.000000 83.534 -25.8372
4550.000000 83.558 -26.2328
4620.000000 83.600 -26.9161
4680.000000 83.639 -27.6301
4750.000000 83.684 -28.6126
4820.000000 83.723 -29.7575
4870.000000 83.744 -30.6774
4940.000000 83.753 -32.0974
5000.000000 83.731 -33.4181
5080.000000 83.646 -35.2894
5150.000000 83.521 -36.9879
5220.000000 83.352 -38.6764
5300.000000 83.110 -40.5084
5380.000000 82.818 -42.1762
5450.000000 82.522 -43.4420
5520.000000 82.195 -44.4741
5600.000000 81.794 -45.3121
5700.000000 81.268 -45.8232
5800.000000 80.732 -45.7200
5900.000000 80.204 -44.9852
6000.000000 79.702 -43.6614
6080.000000 79.328 -42.2207
6150.000000 79.026 -40.7073
6220.000000 78.754 -38.9800
6300.000000 78.492 -36.7720
6400.000000 78.252 -33.7042
6500.000000 78.103 -30.3463
6600.000000 78.035 -26.7922
6700.000000 78.057 -23.1333
6800.000000 78.176 -19.4474
6900.000000 78.395 -15.7900
7000.000000 78.728 -12.2448
7100.000000 79.188 -9.0209
7200.000000 79.762 -6.5208
7300.000000 80.391 -4.9717
7400.000000 81.043 -4.2335
7500.000000 81.712 -4.3237
7620.000000 82.497 -5.7634
7750.000000 83.226 -9.0272
7880.000000 83.712 -13.6947
8000.000000 83.868 -18.5735
8120.000000 83.736 -23.2678
8250.000000 83.346 -27.5038
8380.000000 82.800 -30.5150
8500.000000 82.233 -32.1833
8620.000000 81.656 -32.9095
8750.000000 81.056 -32.8347
8850.000000 80.627 -32.3098
9000.000000 80.051 -30.9850
9120.000000 79.655 -29.6609
9250.000000 79.288 -28.1884
9380.000000 78.963 -26.8322
9500.000000 78.673 -25.7217
9620.000000 78.375 -24.6931
9750.000000 78.030 -23.6307
9880.000000 77.655 -22.5405
10000.000000 77.288 -21.3810
10150.000000 76.821 -19.5421
10300.000000 76.357 -17.1733
10440.000000 75.940 -14.4670
10600.000000 75.502 -10.8417
10750.000000 75.144 -7.0457
10900.000000 74.844 -2.9926
11060.000000 74.597 1.5042
11200.000000 74.447 5.5167
11380.000000 74.348 10.6933
11500.000000 74.344 14.0910
11720.000000 74.465 19.9423
11800.000000 74.549 21.8812
12060.000000 74.946 27.1497
12200.000000 75.215 29.0711
12410.000000 75.608 30.4282
12500.000000 75.735 30.4320
12650.000000 75.843 29.7904
12800.000000 75.788 28.6598
13150.000000 75.035 26.5656
13200.000000 74.873 26.5105
13400.000000 74.150 27.1377
13600.000000 73.370 29.1006
13800.000000 72.597 32.2237
14000.000000 71.879 36.3022
14300.000000 70.972 43.8297
14500.000000 70.528 49.4043
14750.000000 70.167 56.2277
15000.000000 69.968 62.1573
15250.000000 69.818 66.9181
15500.000000 69.606 70.9328
15750.000000 69.320 74.9926
16000.000000 69.114 79.6707
16250.000000 69.221 84.7483
16500.000000 69.718 88.8122
16750.000000 70.496 89.6752
17000.000000 71.204 85.5071
17250.000000 71.299 76.5809
17500.000000 70.354 66.1183
17750.000000 68.370 58.3075
18000.000000 65.659 55.8333
18250.000000 62.534 60.4896
18500.000000 59.502 77.4846
18750.000000 58.517 109.4212
19000.000000 59.857 125.8109
19250.000000 60.767 126.4266
19500.000000 60.687 125.0137
19750.000000 60.184 125.5955
20000.000000 59.810 127.0844
