* Measurement data measured by REW V5.31.3
* Source: Headset (Odo By VECLAN.COM), MICROPHONE (Master Volume), R, volume: 0.250
* Format: 1M Log Swept Sine, 1 sweep at -12.0 dBFS with no timing reference
* Dated: 02 14, 25 3:00:40 PM
* REW Settings:
*  C-weighting compensation: Off
*  Target level: 75.0 dB
* Note: ; 
* Measurement: xuanji 700m R
* Smoothing: 1/24 octave
* Frequency Step: 1/48 octave
* Start Frequency: 1.000 Hz
*
* Freq(Hz) SPL(dB) Phase(degrees)
1.000000 49.074 -115.0586
1.015000 49.283 -113.9986
1.030000 49.492 -113.0113
1.044000 49.687 -112.1556
1.060000 49.907 -111.2551
1.075000 50.111 -110.4852
1.090000 50.313 -109.7847
1.106000 50.526 -109.1036
1.120000 50.716 -108.5473
1.138000 50.965 -107.8751
1.150000 51.135 -107.4530
1.172000 51.453 -106.7332
1.180000 51.571 -106.4888
1.206000 51.959 -105.7580
1.220000 52.171 -105.4044
1.241000 52.493 -104.9257
1.250000 52.632 -104.7392
1.265000 52.864 -104.4529
1.280000 53.097 -104.1969
1.315000 53.640 -103.7138
1.320000 53.717 -103.6575
1.340000 54.025 -103.4634
1.360000 54.331 -103.3176
1.380000 54.632 -103.2189
1.400000 54.927 -103.1657
1.430000 55.359 -103.1681
1.450000 55.638 -103.2214
1.475000 55.976 -103.3337
1.500000 56.306 -103.4693
1.525000 56.630 -103.6184
1.550000 56.949 -103.7841
1.575000 57.263 -103.9703
1.600000 57.572 -104.1806
1.625000 57.876 -104.4179
1.650000 58.177 -104.6846
1.675000 58.472 -104.9829
1.700000 58.764 -105.3145
1.725000 59.053 -105.6806
1.750000 59.337 -106.0825
1.775000 59.619 -106.5210
1.800000 59.897 -106.9963
1.825000 60.172 -107.5060
1.850000 60.443 -108.0379
1.875000 60.711 -108.5764
1.900000 60.974 -109.1175
1.925000 61.232 -109.6628
1.950000 61.487 -110.2144
1.975000 61.738 -110.7744
2.000000 61.986 -111.3448
2.030000 62.278 -112.0453
2.060000 62.567 -112.7660
2.090000 62.852 -113.5093
2.120000 63.133 -114.2775
2.140000 63.319 -114.8045
2.180000 63.688 -115.8950
2.200000 63.870 -116.4559
2.240000 64.230 -117.5878
2.270000 64.495 -118.4359
2.300000 64.756 -119.2836
2.330000 65.013 -120.1334
2.360000 65.267 -120.9877
2.400000 65.600 -122.1382
2.430000 65.847 -123.0126
2.470000 66.171 -124.1984
2.500000 66.411 -125.1053
2.540000 66.727 -126.3412
2.580000 67.039 -127.6031
2.620000 67.347 -128.8734
2.650000 67.574 -129.8260
2.690000 67.872 -131.0958
2.720000 68.092 -132.0493
2.760000 68.382 -133.3243
2.800000 68.667 -134.6066
2.850000 69.017 -136.2254
2.900000 69.361 -137.8683
2.950000 69.699 -139.5372
3.000000 70.030 -141.2197
3.040000 70.289 -142.5683
3.070000 70.481 -143.5797
3.110000 70.734 -144.9277
3.150000 70.982 -146.2751
3.200000 71.286 -147.9602
3.250000 71.584 -149.6492
3.300000 71.876 -151.3472
3.350000 72.162 -153.0571
3.400000 72.442 -154.7744
3.450000 72.715 -156.4915
3.500000 72.982 -158.2027
3.550000 73.243 -159.9044
3.600000 73.498 -161.5958
3.650000 73.747 -163.2789
3.700000 73.990 -164.9626
3.750000 74.227 -166.6529
3.820000 74.549 -169.0192
3.870000 74.772 -170.6980
3.950000 75.118 -173.3474
4.000000 75.327 -174.9758
4.060000 75.571 -176.9113
4.120000 75.807 -178.8440
4.180000 76.035 179.2288
4.250000 76.291 177.0052
4.310000 76.504 175.1345
4.370000 76.710 173.3036
4.440000 76.943 171.2068
4.500000 77.135 169.4246
4.550000 77.290 167.9510
4.620000 77.499 165.9175
4.680000 77.674 164.2128
4.750000 77.871 162.2773
4.820000 78.063 160.3890
4.870000 78.195 159.0590
4.940000 78.374 157.2238
5.000000 78.523 155.6811
5.080000 78.718 153.6776
5.150000 78.884 151.9777
5.220000 79.046 150.3181
5.300000 79.226 148.4622
5.380000 79.402 146.6494
5.450000 79.553 145.0998
5.520000 79.703 143.5850
5.600000 79.872 141.8923
5.700000 80.078 139.8248
5.800000 80.281 137.8011
5.900000 80.481 135.8135
6.000000 80.677 133.8593
6.080000 80.832 132.3166
6.150000 80.965 130.9784
6.220000 81.095 129.6476
6.300000 81.241 128.1317
6.400000 81.419 126.2452
6.500000 81.590 124.3735
6.600000 81.753 122.5171
6.700000 81.907 120.6645
6.800000 82.053 118.8185
6.900000 82.189 116.9981
7.000000 82.315 115.2079
7.100000 82.429 113.4341
7.200000 82.533 111.6878
7.300000 82.627 109.9929
7.400000 82.711 108.3514
7.500000 82.784 106.7527
7.620000 82.860 104.9099
7.750000 82.932 103.0355
7.880000 82.992 101.2777
8.000000 83.042 99.7587
8.120000 83.091 98.3515
8.250000 83.141 96.9473
8.380000 83.195 95.6443
8.500000 83.251 94.5231
8.620000 83.314 93.4759
8.750000 83.390 92.3881
8.850000 83.455 91.5674
9.000000 83.565 90.3596
9.120000 83.659 89.3845
9.250000 83.767 88.2949
9.380000 83.879 87.1722
9.500000 83.983 86.0984
9.620000 84.086 84.9801
9.750000 84.192 83.7257
9.880000 84.287 82.4398
10.000000 84.361 81.2270
10.150000 84.435 79.6887
10.300000 84.491 78.1584
10.440000 84.528 76.7443
10.600000 84.557 75.1693
10.750000 84.574 73.7543
10.900000 84.583 72.4009
11.060000 84.589 71.0388
11.200000 84.591 69.9157
11.380000 84.596 68.5532
11.500000 84.602 67.6924
11.720000 84.620 66.1841
11.800000 84.629 65.6500
12.060000 84.669 63.9425
12.200000 84.695 63.0209
12.410000 84.740 61.6237
12.500000 84.763 61.0161
12.650000 84.804 59.9911
12.800000 84.845 58.9557
13.150000 84.925 56.5257
13.200000 84.934 56.1815
13.400000 84.965 54.8216
13.600000 84.986 53.5041
13.800000 84.999 52.2426
14.000000 85.006 51.0469
14.300000 85.010 49.3831
14.500000 85.012 48.3572
14.750000 85.014 47.1555
15.000000 85.019 46.0271
15.250000 85.028 44.9521
15.500000 85.039 43.9141
15.750000 85.052 42.9016
16.000000 85.065 41.9081
16.250000 85.078 40.9329
16.500000 85.090 39.9777
16.750000 85.100 39.0466
17.000000 85.107 38.1422
17.250000 85.113 37.2653
17.500000 85.118 36.4132
17.750000 85.123 35.5799
18.000000 85.129 34.7579
18.250000 85.136 33.9392
18.500000 85.142 33.1178
18.750000 85.146 32.2918
19.000000 85.148 31.4629
19.250000 85.147 30.6373
19.500000 85.142 29.8232
19.750000 85.135 29.0282
20.000000 85.126 28.2577
20.299999 85.115 27.3671
20.600000 85.106 26.5083
20.900000 85.099 25.6718
21.200001 85.095 24.8477
21.400000 85.093 24.3030
21.799999 85.089 23.2278
22.000000 85.086 22.7007
22.400000 85.081 21.6762
22.700001 85.078 20.9348
23.000000 85.076 20.2108
23.299999 85.076 19.4955
23.600000 85.076 18.7815
24.000000 85.073 17.8284
24.299999 85.066 17.1195
24.700001 85.049 16.2009
25.000000 85.030 15.5456
25.400000 85.001 14.7336
25.799999 84.968 14.0019
26.200001 84.939 13.3477
26.500000 84.922 12.8953
26.900000 84.907 12.3149
27.200001 84.903 11.8764
27.600000 84.905 11.2660
28.000000 84.914 10.6145
28.500000 84.935 9.7172
29.000000 84.964 8.6634
29.500000 84.982 7.4030
30.000000 84.964 6.0266
30.400000 84.918 4.9908
30.700001 84.873 4.3187
31.100000 84.815 3.5686
31.500000 84.768 2.9187
32.000000 84.717 2.1427
32.500000 84.652 1.4767
33.000000 84.586 1.1102
33.500000 84.569 0.9763
34.000000 84.615 0.6643
34.500000 84.657 -0.0891
35.000000 84.625 -1.0086
35.500000 84.533 -1.5974
36.000000 84.462 -1.7584
36.500000 84.452 -1.9100
37.000000 84.451 -2.3704
37.500000 84.405 -2.9296
38.200001 84.328 -3.2994
38.700001 84.345 -3.5894
39.500000 84.372 -5.1088
40.000000 84.269 -6.2509
40.599998 84.077 -6.8264
41.200001 83.989 -6.6223
41.799999 84.045 -6.6835
42.500000 84.118 -7.6556
43.099998 84.107 -8.6815
43.700001 84.070 -9.4819
44.400002 84.039 -10.2721
45.000000 84.004 -10.9480
45.500000 83.960 -11.4380
46.200001 83.893 -11.9215
46.799999 83.847 -12.2223
47.500000 83.803 -12.5929
48.200001 83.752 -13.0189
48.700001 83.707 -13.3172
49.400002 83.641 -13.6967
50.000000 83.588 -14.0154
50.799999 83.518 -14.4663
51.500000 83.460 -14.8588
52.200001 83.412 -15.2633
53.000000 83.365 -15.7905
53.799999 83.318 -16.3463
54.500000 83.279 -16.8254
55.200001 83.239 -17.3024
56.000000 83.189 -17.8112
57.000000 83.127 -18.3851
58.000000 83.060 -18.9293
59.000000 82.992 -19.4183
60.000000 82.922 -19.9139
60.799999 82.861 -20.2413
61.500000 82.821 -20.4439
62.200001 82.800 -20.6853
63.000000 82.779 -21.1213
64.000000 82.719 -21.6971
65.000000 82.651 -22.0916
66.000000 82.573 -22.4745
67.000000 82.475 -22.5185
68.000000 82.452 -22.3920
69.000000 82.457 -22.8219
70.000000 82.409 -23.4535
71.000000 82.347 -23.9586
72.000000 82.290 -24.4153
73.000000 82.238 -24.8304
74.000000 82.189 -25.2238
75.000000 82.136 -25.5585
76.199997 82.075 -25.8552
77.500000 82.021 -26.1924
78.800003 81.954 -26.6558
80.000000 81.871 -27.0310
81.199997 81.793 -27.2017
82.500000 81.751 -27.3049
83.800003 81.719 -27.5693
85.000000 81.685 -27.7523
86.199997 81.658 -27.9941
87.500000 81.611 -28.3059
88.500000 81.574 -28.4814
90.000000 81.536 -28.8434
91.199997 81.497 -29.2330
92.500000 81.449 -29.6245
93.800003 81.395 -29.9603
95.000000 81.349 -30.2378
96.199997 81.295 -30.4974
97.500000 81.241 -30.7058
98.800003 81.191 -30.9444
100.000000 81.143 -31.1768
101.500000 81.078 -31.4454
103.000000 81.014 -31.6246
104.400002 80.968 -31.7811
106.000000 80.922 -32.0962
107.500000 80.868 -32.4493
109.000000 80.812 -32.7445
110.599998 80.760 -33.0223
112.000000 80.714 -33.2441
113.800003 80.648 -33.4460
115.000000 80.601 -33.5206
117.199997 80.512 -33.6929
118.000000 80.477 -33.7788
120.599998 80.376 -34.0013
122.000000 80.343 -34.1908
124.099998 80.284 -34.5018
125.000000 80.256 -34.5703
126.500000 80.211 -34.6133
128.000000 80.171 -34.6424
131.500000 80.084 -34.9513
132.000000 80.071 -35.0126
134.000000 80.021 -35.2513
136.000000 79.970 -35.4244
138.000000 79.921 -35.5526
140.000000 79.880 -35.6761
143.000000 79.830 -35.9689
145.000000 79.781 -36.1073
147.500000 79.713 -36.1318
150.000000 79.647 -36.2001
152.500000 79.594 -36.3671
155.000000 79.545 -36.5015
157.500000 79.505 -36.5498
160.000000 79.451 -36.6752
162.500000 79.383 -36.8088
165.000000 79.321 -36.9351
167.500000 79.262 -37.0226
170.000000 79.198 -37.0785
172.500000 79.132 -37.1376
175.000000 79.068 -37.2100
177.500000 79.009 -37.2728
180.000000 78.952 -37.3210
182.500000 78.893 -37.3239
185.000000 78.838 -37.3071
187.500000 78.784 -37.3041
190.000000 78.732 -37.2857
192.500000 78.691 -37.2645
195.000000 78.654 -37.2904
197.500000 78.611 -37.3259
200.000000 78.566 -37.3475
203.000000 78.516 -37.4082
206.000000 78.467 -37.4621
209.000000 78.423 -37.4702
212.000000 78.385 -37.4786
214.000000 78.359 -37.4808
218.000000 78.312 -37.4734
220.000000 78.288 -37.4607
224.000000 78.250 -37.3766
227.000000 78.231 -37.3221
230.000000 78.206 -37.2645
233.000000 78.175 -37.2468
236.000000 78.147 -37.2671
240.000000 78.119 -37.2484
243.000000 78.101 -37.2344
247.000000 78.072 -37.2767
250.000000 78.044 -37.3152
254.000000 78.002 -37.3417
258.000000 77.963 -37.3368
262.000000 77.928 -37.3311
265.000000 77.900 -37.3109
269.000000 77.864 -37.2826
272.000000 77.840 -37.3137
276.000000 77.813 -37.3279
280.000000 77.787 -37.2854
285.000000 77.748 -37.2418
290.000000 77.694 -37.1924
295.000000 77.647 -37.0858
300.000000 77.610 -36.9999
304.000000 77.586 -36.9740
307.000000 77.569 -36.9406
311.000000 77.547 -36.8785
315.000000 77.526 -36.8342
320.000000 77.496 -36.7915
325.000000 77.467 -36.7289
330.000000 77.439 -36.6691
335.000000 77.412 -36.6151
340.000000 77.384 -36.5522
345.000000 77.357 -36.4604
350.000000 77.334 -36.3905
355.000000 77.310 -36.3378
360.000000 77.285 -36.2681
365.000000 77.260 -36.1488
370.000000 77.231 -36.0314
375.000000 77.205 -35.9133
382.000000 77.173 -35.7684
387.000000 77.157 -35.6943
395.000000 77.138 -35.5430
400.000000 77.127 -35.4510
406.000000 77.116 -35.3396
412.000000 77.103 -35.1968
418.000000 77.087 -35.0630
425.000000 77.064 -34.8894
431.000000 77.042 -34.7207
437.000000 77.022 -34.5831
444.000000 77.008 -34.4313
450.000000 77.000 -34.2913
455.000000 76.995 -34.1655
462.000000 76.987 -33.9831
468.000000 76.980 -33.8254
475.000000 76.973 -33.6397
482.000000 76.967 -33.4548
487.000000 76.964 -33.3185
494.000000 76.961 -33.1307
500.000000 76.960 -32.9745
508.000000 76.960 -32.7539
515.000000 76.962 -32.5559
522.000000 76.965 -32.3588
530.000000 76.973 -32.1353
538.000000 76.984 -31.9301
545.000000 76.997 -31.7900
552.000000 77.016 -31.6898
560.000000 77.040 -31.6400
570.000000 77.070 -31.7972
580.000000 77.056 -32.3456
590.000000 76.911 -32.8904
600.000000 76.686 -32.3615
608.000000 76.583 -31.1996
615.000000 76.577 -30.1907
622.000000 76.616 -29.4176
630.000000 76.679 -28.8379
640.000000 76.747 -28.4063
650.000000 76.790 -28.0979
660.000000 76.816 -27.7783
670.000000 76.836 -27.4253
680.000000 76.853 -27.0497
690.000000 76.869 -26.6426
700.000000 76.886 -26.2226
710.000000 76.903 -25.7985
720.000000 76.922 -25.3560
730.000000 76.942 -24.9036
740.000000 76.963 -24.4519
750.000000 76.986 -23.9905
762.000000 77.017 -23.4216
775.000000 77.057 -22.7980
788.000000 77.102 -22.1690
800.000000 77.147 -21.5858
812.000000 77.193 -20.9990
825.000000 77.244 -20.3679
838.000000 77.299 -19.7327
850.000000 77.352 -19.1408
862.000000 77.409 -18.5449
875.000000 77.475 -17.8973
885.000000 77.528 -17.3973
900.000000 77.611 -16.6617
912.000000 77.682 -16.0844
925.000000 77.761 -15.4715
938.000000 77.843 -14.8704
950.000000 77.922 -14.3297
962.000000 78.003 -13.7965
975.000000 78.095 -13.2318
988.000000 78.192 -12.6840
1000.000000 78.286 -12.2004
1015.000000 78.406 -11.6183
1030.000000 78.528 -11.0601
1044.000000 78.643 -10.5641
1060.000000 78.776 -10.0293
1075.000000 78.902 -9.5619
1090.000000 79.028 -9.1185
1106.000000 79.159 -8.6764
1120.000000 79.273 -8.3167
1138.000000 79.421 -7.8876
1150.000000 79.522 -7.6213
1172.000000 79.705 -7.1691
1180.000000 79.768 -7.0107
1206.000000 79.957 -6.5029
1220.000000 80.056 -6.2385
1241.000000 80.211 -5.8710
1250.000000 80.279 -5.7244
1265.000000 80.394 -5.4855
1280.000000 80.507 -5.2462
1315.000000 80.765 -4.7025
1320.000000 80.800 -4.6263
1340.000000 80.940 -4.3184
1360.000000 81.074 -3.9989
1380.000000 81.205 -3.6756
1400.000000 81.336 -3.3525
1430.000000 81.534 -2.8870
1450.000000 81.667 -2.7065
1475.000000 81.823 -2.9437
1500.000000 81.980 -3.3524
1525.000000 82.138 -3.6610
1550.000000 82.298 -3.9705
1575.000000 82.461 -4.2941
1600.000000 82.625 -4.6259
1625.000000 82.788 -4.9871
1650.000000 82.943 -5.3512
1675.000000 83.098 -5.7446
1700.000000 83.253 -6.1587
1725.000000 83.408 -6.5959
1750.000000 83.563 -7.0658
1775.000000 83.716 -7.5582
1800.000000 83.869 -8.0776
1825.000000 84.024 -8.6204
1850.000000 84.178 -9.1847
1875.000000 84.330 -9.7644
1900.000000 84.474 -10.3564
1925.000000 84.610 -10.9583
1950.000000 84.739 -11.5598
1975.000000 84.864 -12.1409
2000.000000 84.991 -12.6807
2030.000000 85.153 -13.2520
2060.000000 85.332 -13.7426
2090.000000 85.542 -14.2104
2120.000000 85.792 -14.8016
2140.000000 85.974 -15.3546
2180.000000 86.340 -16.9395
2200.000000 86.509 -17.9375
2240.000000 86.802 -20.1832
2270.000000 86.985 -21.9782
2300.000000 87.143 -23.8082
2330.000000 87.281 -25.6731
2360.000000 87.400 -27.5988
2400.000000 87.521 -30.2383
2430.000000 87.581 -32.2179
2470.000000 87.623 -34.7790
2500.000000 87.632 -36.5972
2540.000000 87.626 -38.8837
2580.000000 87.610 -41.0677
2620.000000 87.582 -43.2214
2650.000000 87.548 -44.8494
2690.000000 87.477 -47.0108
2720.000000 87.405 -48.5854
2760.000000 87.286 -50.5753
2800.000000 87.146 -52.4083
2850.000000 86.950 -54.4539
2900.000000 86.735 -56.2266
2950.000000 86.504 -57.7407
3000.000000 86.269 -59.0303
3040.000000 86.086 -59.9229
3070.000000 85.946 -60.5135
3110.000000 85.755 -61.2094
3150.000000 85.560 -61.8075
3200.000000 85.310 -62.4176
3250.000000 85.062 -62.8766
3300.000000 84.824 -63.1948
3350.000000 84.598 -63.3971
3400.000000 84.384 -63.5007
3450.000000 84.179 -63.5319
3500.000000 83.981 -63.5180
3550.000000 83.788 -63.4643
3600.000000 83.598 -63.3633
3650.000000 83.411 -63.2139
3700.000000 83.225 -63.0024
3750.000000 83.041 -62.7186
3820.000000 82.789 -62.2175
3870.000000 82.614 -61.7938
3950.000000 82.344 -61.0026
4000.000000 82.184 -60.4454
4060.000000 82.001 -59.7142
4120.000000 81.821 -58.8651
4180.000000 81.652 -57.8082
4250.000000 81.512 -56.4486
4310.000000 81.424 -55.5834
4370.000000 81.309 -54.9031
4440.000000 81.146 -53.9748
4500.000000 81.005 -53.0358
4550.000000 80.892 -52.1835
4620.000000 80.743 -50.8990
4680.000000 80.622 -49.7243
4750.000000 80.490 -48.2920
4820.000000 80.366 -46.8025
4870.000000 80.283 -45.7039
4940.000000 80.169 -44.1106
5000.000000 80.068 -42.6996
5080.000000 79.922 -40.7678
5150.000000 79.795 -39.0204
5220.000000 79.678 -37.2098
5300.000000 79.554 -35.0723
5380.000000 79.439 -32.8817
5450.000000 79.350 -30.9280
5520.000000 79.273 -28.9323
5600.000000 79.196 -26.5990
5700.000000 79.116 -23.6174
5800.000000 79.064 -20.5833
5900.000000 79.050 -17.5048
6000.000000 79.073 -14.3530
6080.000000 79.114 -11.7767
6150.000000 79.161 -9.4827
6220.000000 79.222 -7.1595
6300.000000 79.321 -4.4861
6400.000000 79.494 -1.1034
6500.000000 79.729 2.2807
6600.000000 80.013 5.6227
6700.000000 80.345 8.9011
6800.000000 80.731 12.0573
6900.000000 81.174 15.0316
7000.000000 81.677 17.7543
7100.000000 82.239 20.1506
7200.000000 82.862 22.1268
7300.000000 83.543 23.5540
7400.000000 84.279 24.2777
7500.000000 85.053 24.1409
7620.000000 85.989 22.5812
7750.000000 86.920 18.8849
7880.000000 87.619 13.1447
8000.000000 87.919 6.5961
8120.000000 87.817 -0.1819
8250.000000 87.305 -6.5854
8380.000000 86.514 -11.1857
8500.000000 85.674 -13.6108
8620.000000 84.831 -14.4782
8750.000000 83.984 -14.0756
8850.000000 83.405 -13.0966
9000.000000 82.671 -10.9627
9120.000000 82.198 -8.9805
9250.000000 81.788 -6.8467
9380.000000 81.464 -4.9761
9500.000000 81.218 -3.6642
9620.000000 80.998 -2.8600
9750.000000 80.746 -2.6169
9880.000000 80.435 -2.9937
10000.000000 80.064 -3.7581
10150.000000 79.450 -4.9010
10300.000000 78.643 -5.6817
10440.000000 77.725 -5.5291
10600.000000 76.543 -3.8087
10750.000000 75.392 -0.3929
10900.000000 74.322 4.8215
11060.000000 73.382 11.5789
11200.000000 72.735 17.9816
11380.000000 72.167 26.1310
11500.000000 71.903 30.9153
11720.000000 71.426 38.3813
11800.000000 71.221 40.9715
12060.000000 70.490 50.0511
12200.000000 70.108 55.4314
12410.000000 69.599 64.1529
12500.000000 69.417 68.1563
12650.000000 69.183 75.1345
12800.000000 69.056 82.3673
13150.000000 69.280 99.5211
13200.000000 69.381 101.9356
13400.000000 69.978 111.2723
13600.000000 70.962 119.5977
13800.000000 72.434 125.5839
14000.000000 74.344 126.6286
14300.000000 76.884 113.4135
14500.000000 77.130 96.8048
14750.000000 75.250 78.4388
15000.000000 72.065 71.0099
15250.000000 68.981 73.1302
15500.000000 66.543 79.8597
15750.000000 64.708 87.8587
16000.000000 63.332 95.4879
16250.000000 62.300 102.0452
16500.000000 61.436 107.3307
16750.000000 60.562 111.3535
17000.000000 59.555 114.4712
17250.000000 58.344 117.2951
17500.000000 56.909 120.6163
17750.000000 55.316 125.2599
18000.000000 53.680 131.4613
18250.000000 52.086 139.0307
18500.000000 50.593 147.6235
18750.000000 49.247 156.8178
19000.000000 48.076 166.2267
19250.000000 47.078 175.3180
19500.000000 46.248 -176.4259
19750.000000 45.594 -169.6614
20000.000000 45.213 -165.6205
