* Measurement data measured by REW V5.31.3
* Source: Headset (Odo By VECLAN.COM), MICROPHONE (Master Volume), R, volume: 0.250
* Format: 512k Log Swept Sine, 1 sweep at -12.0 dBFS with no timing reference
* Dated: 01 25, 25 4:49:00 AM
* REW Settings:
*  C-weighting compensation: Off
*  Target level: 75.0 dB
* Note: ; 
* Measurement: zenith uudd R
* Smoothing: 1/24 octave
* Frequency Step: 1/48 octave
* Start Frequency: 1.000 Hz
*
* Freq(Hz) SPL(dB) Phase(degrees)
1.000000 72.162 22.7905
1.015000 72.216 21.9237
1.030000 72.269 21.0432
1.044000 72.318 20.2075
1.060000 72.373 19.2341
1.075000 72.423 18.3016
1.090000 72.473 17.3462
1.106000 72.526 16.2931
1.120000 72.573 15.3316
1.138000 72.632 14.0362
1.150000 72.671 13.1380
1.172000 72.742 11.4259
1.180000 72.767 10.7836
1.206000 72.847 8.6376
1.220000 72.889 7.4504
1.241000 72.950 5.6369
1.250000 72.975 4.8498
1.265000 73.015 3.5279
1.280000 73.054 2.1962
1.315000 73.135 -0.9313
1.320000 73.146 -1.3788
1.340000 73.185 -3.1669
1.360000 73.220 -4.9483
1.380000 73.250 -6.7077
1.400000 73.274 -8.4481
1.430000 73.298 -11.0259
1.450000 73.306 -12.7217
1.475000 73.304 -14.8288
1.500000 73.285 -16.9523
1.525000 73.249 -19.0983
1.550000 73.198 -21.2558
1.575000 73.136 -23.4078
1.600000 73.064 -25.5397
1.625000 72.987 -27.6515
1.650000 72.906 -29.7356
1.675000 72.825 -31.7860
1.700000 72.746 -33.7983
1.725000 72.673 -35.7696
1.750000 72.608 -37.6984
1.775000 72.554 -39.5885
1.800000 72.513 -41.4453
1.825000 72.489 -43.2651
1.850000 72.481 -45.0621
1.875000 72.483 -46.8491
1.900000 72.496 -48.6230
1.925000 72.517 -50.3746
1.950000 72.546 -52.0953
1.975000 72.581 -53.7817
2.000000 72.621 -55.4313
2.030000 72.675 -57.3460
2.060000 72.735 -59.1851
2.090000 72.797 -60.9452
2.120000 72.860 -62.6250
2.140000 72.902 -63.7006
2.180000 72.984 -65.7566
2.200000 73.023 -66.7464
2.240000 73.105 -68.6671
2.270000 73.169 -70.0667
2.300000 73.237 -71.4282
2.330000 73.307 -72.7474
2.360000 73.379 -74.0208
2.400000 73.477 -75.6637
2.430000 73.551 -76.8390
2.470000 73.650 -78.3240
2.500000 73.723 -79.3757
2.540000 73.818 -80.6968
2.580000 73.910 -81.9491
2.620000 74.002 -83.1710
2.650000 74.070 -84.0565
2.690000 74.161 -85.1955
2.720000 74.229 -86.0167
2.760000 74.318 -87.0639
2.800000 74.407 -88.0847
2.850000 74.516 -89.2847
2.900000 74.623 -90.3937
2.950000 74.728 -91.4189
3.000000 74.830 -92.4079
3.040000 74.910 -93.1708
3.070000 74.969 -93.7209
3.110000 75.047 -94.4245
3.150000 75.124 -95.0938
3.200000 75.219 -95.9050
3.250000 75.313 -96.6730
3.300000 75.406 -97.3890
3.350000 75.498 -98.0607
3.400000 75.589 -98.7206
3.450000 75.679 -99.3557
3.500000 75.768 -99.9560
3.550000 75.855 -100.5207
3.600000 75.941 -101.0781
3.650000 76.027 -101.6140
3.700000 76.111 -102.1216
3.750000 76.195 -102.6063
3.820000 76.310 -103.2854
3.870000 76.391 -103.7505
3.950000 76.517 -104.4432
4.000000 76.595 -104.8681
4.060000 76.685 -105.3629
4.120000 76.774 -105.8355
4.180000 76.861 -106.2947
4.250000 76.960 -106.8346
4.310000 77.042 -107.2630
4.370000 77.122 -107.6623
4.440000 77.213 -108.1284
4.500000 77.288 -108.5067
4.550000 77.349 -108.8056
4.620000 77.432 -109.2265
4.680000 77.502 -109.5632
4.750000 77.582 -109.9141
4.820000 77.660 -110.2533
4.870000 77.715 -110.4812
4.940000 77.790 -110.7726
5.000000 77.854 -111.0142
5.080000 77.940 -111.3127
5.150000 78.015 -111.5353
5.220000 78.091 -111.7466
5.300000 78.178 -111.9604
5.380000 78.267 -112.1486
5.450000 78.346 -112.3211
5.520000 78.427 -112.4736
5.600000 78.522 -112.6368
5.700000 78.645 -112.8367
5.800000 78.770 -113.0358
5.900000 78.899 -113.2632
6.000000 79.031 -113.4964
6.080000 79.138 -113.7030
6.150000 79.232 -113.8858
6.220000 79.325 -114.0978
6.300000 79.431 -114.3558
6.400000 79.563 -114.7001
6.500000 79.693 -115.0750
6.600000 79.819 -115.4644
6.700000 79.940 -115.8848
6.800000 80.056 -116.3192
6.900000 80.169 -116.7653
7.000000 80.276 -117.2041
7.100000 80.379 -117.6517
7.200000 80.477 -118.0925
7.300000 80.572 -118.5261
7.400000 80.664 -118.9377
7.500000 80.754 -119.3427
7.620000 80.860 -119.8126
7.750000 80.975 -120.3023
7.880000 81.091 -120.7856
8.000000 81.199 -121.2253
8.120000 81.309 -121.6784
8.250000 81.431 -122.1823
8.380000 81.552 -122.7103
8.500000 81.664 -123.2406
8.620000 81.775 -123.8029
8.750000 81.890 -124.4453
8.850000 81.974 -124.9676
9.000000 82.090 -125.7831
9.120000 82.175 -126.4482
9.250000 82.257 -127.1665
9.380000 82.329 -127.8752
9.500000 82.389 -128.5083
9.620000 82.441 -129.0992
9.750000 82.491 -129.6982
9.880000 82.533 -130.2442
10.000000 82.567 -130.6842
10.150000 82.603 -131.2129
10.300000 82.643 -131.6769
10.440000 82.686 -132.0593
10.600000 82.742 -132.4797
10.750000 82.805 -132.8905
10.900000 82.877 -133.3327
11.060000 82.957 -133.9057
11.200000 83.030 -134.5155
11.380000 83.114 -135.3744
11.500000 83.160 -135.9921
11.720000 83.222 -137.1582
11.800000 83.235 -137.5779
12.060000 83.248 -138.8904
12.200000 83.239 -139.5406
12.410000 83.215 -140.3485
12.500000 83.206 -140.6210
12.650000 83.198 -140.9767
12.800000 83.201 -141.2298
13.150000 83.269 -141.6033
13.200000 83.286 -141.6593
13.400000 83.375 -141.9117
13.600000 83.485 -142.2808
13.800000 83.606 -142.8202
14.000000 83.721 -143.5442
14.300000 83.861 -144.9805
14.500000 83.917 -146.0372
14.750000 83.941 -147.3277
15.000000 83.922 -148.4640
15.250000 83.877 -149.3940
15.500000 83.827 -150.0305
15.750000 83.791 -150.4042
16.000000 83.786 -150.6103
16.250000 83.814 -150.8096
16.500000 83.869 -151.0540
16.750000 83.935 -151.3958
17.000000 84.000 -151.8322
17.250000 84.056 -152.3526
17.500000 84.102 -152.8746
17.750000 84.142 -153.3534
18.000000 84.182 -153.7826
18.250000 84.229 -154.2062
18.500000 84.284 -154.6375
18.750000 84.343 -155.1096
19.000000 84.401 -155.6429
19.250000 84.449 -156.2503
19.500000 84.482 -156.8708
19.750000 84.499 -157.4550
20.000000 84.504 -157.9554
20.299999 84.508 -158.4465
20.600000 84.522 -158.8053
20.900000 84.556 -159.1116
21.200001 84.609 -159.4884
21.400000 84.649 -159.8140
21.799999 84.719 -160.6462
22.000000 84.741 -161.1278
22.400000 84.750 -162.1204
22.700001 84.730 -162.7682
23.000000 84.701 -163.2800
23.299999 84.675 -163.6766
23.600000 84.660 -163.9855
24.000000 84.661 -164.3550
24.299999 84.673 -164.6663
24.700001 84.698 -165.1277
25.000000 84.722 -165.5068
25.400000 84.758 -166.0822
25.799999 84.797 -166.7375
26.200001 84.830 -167.4804
26.500000 84.848 -168.0654
26.900000 84.861 -168.8163
27.200001 84.871 -169.3512
27.600000 84.891 -170.0645
28.000000 84.915 -170.8531
28.500000 84.919 -171.9950
29.000000 84.865 -173.0887
29.500000 84.765 -173.8152
30.000000 84.676 -174.0591
30.400000 84.643 -174.0676
30.700001 84.639 -174.0692
31.100000 84.651 -174.1374
31.500000 84.669 -174.2889
32.000000 84.700 -174.5530
32.500000 84.744 -174.9816
33.000000 84.781 -175.6616
33.500000 84.778 -176.5258
34.000000 84.730 -177.3366
34.500000 84.663 -177.9465
35.000000 84.610 -178.4011
35.500000 84.572 -178.8387
36.000000 84.536 -179.2763
36.500000 84.504 -179.6562
37.000000 84.491 -179.9804
37.500000 84.498 179.6400
38.200001 84.509 178.9350
38.700001 84.499 178.4265
39.500000 84.476 177.8135
40.000000 84.471 177.5041
40.599998 84.467 177.1495
41.200001 84.463 176.8444
41.799999 84.469 176.5252
42.500000 84.471 175.9641
43.099998 84.434 175.4040
43.700001 84.367 174.9984
44.400002 84.299 174.7553
45.000000 84.268 174.5086
45.500000 84.244 174.1707
46.200001 84.187 173.6165
46.799999 84.126 173.2294
47.500000 84.072 172.9125
48.200001 84.052 172.5836
48.700001 84.052 172.2428
49.400002 84.042 171.6240
50.000000 84.013 171.1038
50.799999 83.965 170.6114
51.500000 83.934 170.2933
52.200001 83.902 169.9961
53.000000 83.860 169.7293
53.799999 83.823 169.4474
54.500000 83.774 169.1403
55.200001 83.709 168.9140
56.000000 83.649 168.7088
57.000000 83.582 168.2132
58.000000 83.486 167.7286
59.000000 83.413 167.3151
60.000000 83.341 166.8135
60.799999 83.279 166.4970
61.500000 83.232 166.2655
62.200001 83.186 166.0482
63.000000 83.131 165.8754
64.000000 83.077 165.7423
65.000000 83.036 165.5896
66.000000 83.000 165.5067
67.000000 83.005 165.4647
68.000000 83.029 165.1144
69.000000 83.005 164.6216
70.000000 82.950 164.4701
71.000000 82.927 164.4921
72.000000 82.909 164.2950
73.000000 82.861 164.0312
74.000000 82.805 163.7888
75.000000 82.747 163.5083
76.199997 82.683 163.1554
77.500000 82.622 162.7399
78.800003 82.560 162.3300
80.000000 82.489 162.0060
81.199997 82.410 161.8769
82.500000 82.340 161.7936
83.800003 82.269 161.6252
85.000000 82.191 161.4550
86.199997 82.102 161.4048
87.500000 82.013 161.5005
88.500000 81.950 161.6080
90.000000 81.866 161.7352
91.199997 81.800 161.7564
92.500000 81.744 161.8541
93.800003 81.737 161.9217
95.000000 81.756 161.7959
96.199997 81.765 161.6459
97.500000 81.773 161.5837
98.800003 81.772 161.4375
100.000000 81.750 161.2374
101.500000 81.703 160.9033
103.000000 81.647 160.5244
104.400002 81.598 160.1758
106.000000 81.538 159.9180
107.500000 81.489 159.8392
109.000000 81.432 159.7747
110.599998 81.362 159.7237
112.000000 81.307 159.6512
113.800003 81.255 159.4904
115.000000 81.227 159.3775
117.199997 81.186 159.2989
118.000000 81.174 159.2888
120.599998 81.113 159.0417
122.000000 81.052 158.8867
124.099998 80.963 158.7644
125.000000 80.934 158.7318
126.500000 80.890 158.6523
128.000000 80.843 158.5787
131.500000 80.734 158.5204
132.000000 80.719 158.5112
134.000000 80.666 158.4648
136.000000 80.618 158.3871
138.000000 80.567 158.3421
140.000000 80.506 158.3015
143.000000 80.406 158.3339
145.000000 80.345 158.3894
147.500000 80.276 158.4257
150.000000 80.216 158.4605
152.500000 80.172 158.5005
155.000000 80.126 158.5635
157.500000 80.047 158.7289
160.000000 79.960 158.9663
162.500000 79.883 159.0601
165.000000 79.818 159.2507
167.500000 79.776 159.5007
170.000000 79.736 159.7198
172.500000 79.704 159.9216
175.000000 79.683 160.0108
177.500000 79.649 159.9413
180.000000 79.603 159.8193
182.500000 79.552 159.6934
185.000000 79.499 159.6457
187.500000 79.440 159.6324
190.000000 79.376 159.5927
192.500000 79.311 159.5499
195.000000 79.249 159.5569
197.500000 79.192 159.6319
200.000000 79.139 159.7192
203.000000 79.077 159.8403
206.000000 79.018 159.9522
209.000000 78.959 160.0585
212.000000 78.904 160.1821
214.000000 78.870 160.2594
218.000000 78.805 160.4267
220.000000 78.772 160.5060
224.000000 78.707 160.6797
227.000000 78.661 160.8246
230.000000 78.617 160.9731
233.000000 78.575 161.1181
236.000000 78.529 161.2787
240.000000 78.469 161.5315
243.000000 78.429 161.6886
247.000000 78.374 161.9175
250.000000 78.333 162.0963
254.000000 78.276 162.3062
258.000000 78.220 162.5250
262.000000 78.170 162.7535
265.000000 78.131 162.9198
269.000000 78.075 163.1579
272.000000 78.035 163.3419
276.000000 77.987 163.6014
280.000000 77.937 163.8438
285.000000 77.874 164.0892
290.000000 77.814 164.3888
295.000000 77.759 164.6793
300.000000 77.707 164.9815
304.000000 77.667 165.2349
307.000000 77.637 165.4282
311.000000 77.596 165.6870
315.000000 77.555 165.9460
320.000000 77.506 166.2565
325.000000 77.461 166.5642
330.000000 77.415 166.8748
335.000000 77.369 167.2007
340.000000 77.327 167.5154
345.000000 77.290 167.8371
350.000000 77.254 168.1625
355.000000 77.214 168.4731
360.000000 77.171 168.7902
365.000000 77.131 169.0948
370.000000 77.095 169.3959
375.000000 77.064 169.7291
382.000000 77.018 170.1666
387.000000 76.984 170.4830
395.000000 76.930 171.0308
400.000000 76.898 171.3464
406.000000 76.863 171.7418
412.000000 76.831 172.1137
418.000000 76.800 172.4688
425.000000 76.764 172.9159
431.000000 76.727 173.3116
437.000000 76.691 173.6826
444.000000 76.658 174.1093
450.000000 76.632 174.4994
455.000000 76.611 174.8223
462.000000 76.581 175.2656
468.000000 76.557 175.6380
475.000000 76.529 176.0736
482.000000 76.501 176.5277
487.000000 76.483 176.8592
494.000000 76.457 177.3013
500.000000 76.436 177.6723
508.000000 76.411 178.1651
515.000000 76.391 178.6143
522.000000 76.373 179.0567
530.000000 76.354 179.5607
538.000000 76.333 -179.9293
545.000000 76.316 -179.4921
552.000000 76.301 -179.0647
560.000000 76.286 -178.5598
570.000000 76.264 -177.9238
580.000000 76.243 -177.2971
590.000000 76.227 -176.6672
600.000000 76.214 -176.0430
608.000000 76.204 -175.5373
615.000000 76.196 -175.0848
622.000000 76.189 -174.6296
630.000000 76.180 -174.1071
640.000000 76.171 -173.4472
650.000000 76.167 -172.8195
660.000000 76.165 -172.2352
670.000000 76.165 -171.6193
680.000000 76.163 -170.9634
690.000000 76.162 -170.3097
700.000000 76.166 -169.6786
710.000000 76.172 -169.0391
720.000000 76.179 -168.3995
730.000000 76.191 -167.7573
740.000000 76.205 -167.1265
750.000000 76.223 -166.5223
762.000000 76.250 -165.7981
775.000000 76.287 -165.0520
788.000000 76.331 -164.3584
800.000000 76.377 -163.8443
812.000000 76.416 -163.5441
825.000000 76.401 -163.4975
838.000000 76.273 -163.1851
850.000000 76.143 -161.8609
862.000000 76.130 -160.0585
875.000000 76.220 -158.4836
885.000000 76.305 -157.5727
900.000000 76.423 -156.4602
912.000000 76.510 -155.6782
925.000000 76.598 -154.8834
938.000000 76.683 -154.1131
950.000000 76.757 -153.4229
962.000000 76.830 -152.7304
975.000000 76.908 -151.9705
988.000000 76.989 -151.1869
1000.000000 77.072 -150.4245
1015.000000 77.197 -149.3921
1030.000000 77.364 -148.4131
1044.000000 77.546 -147.7740
1060.000000 77.742 -147.4353
1075.000000 77.890 -147.2800
1090.000000 78.013 -147.0968
1106.000000 78.134 -146.8746
1120.000000 78.236 -146.6473
1138.000000 78.364 -146.3512
1150.000000 78.449 -146.1611
1172.000000 78.603 -145.8542
1180.000000 78.659 -145.7534
1206.000000 78.835 -145.4513
1220.000000 78.926 -145.3148
1241.000000 79.060 -145.1326
1250.000000 79.117 -145.0604
1265.000000 79.211 -144.9488
1280.000000 79.303 -144.8439
1315.000000 79.511 -144.6417
1320.000000 79.540 -144.6146
1340.000000 79.654 -144.5139
1360.000000 79.764 -144.3949
1380.000000 79.870 -144.3016
1400.000000 79.975 -144.2028
1430.000000 80.128 -144.0592
1450.000000 80.229 -143.9573
1475.000000 80.351 -143.8413
1500.000000 80.470 -143.7092
1525.000000 80.586 -143.5879
1550.000000 80.703 -143.4629
1575.000000 80.819 -143.3422
1600.000000 80.934 -143.2238
1625.000000 81.047 -143.1040
1650.000000 81.159 -142.9987
1675.000000 81.272 -142.8945
1700.000000 81.384 -142.7840
1725.000000 81.496 -142.6788
1750.000000 81.610 -142.5679
1775.000000 81.724 -142.4717
1800.000000 81.838 -142.3753
1825.000000 81.953 -142.2708
1850.000000 82.070 -142.1503
1875.000000 82.191 -142.0315
1900.000000 82.316 -141.9172
1925.000000 82.442 -141.8219
1950.000000 82.571 -141.7422
1975.000000 82.703 -141.6487
2000.000000 82.841 -141.5577
2030.000000 83.019 -141.4375
2060.000000 83.217 -141.3391
2090.000000 83.434 -141.3368
2120.000000 83.660 -141.5205
2140.000000 83.808 -141.7382
2180.000000 84.094 -142.3130
2200.000000 84.234 -142.6379
2240.000000 84.513 -143.3809
2270.000000 84.724 -144.0667
2300.000000 84.929 -144.8910
2330.000000 85.122 -145.8562
2360.000000 85.296 -146.9275
2400.000000 85.499 -148.4252
2430.000000 85.632 -149.5739
2470.000000 85.789 -151.1350
2500.000000 85.895 -152.3004
2540.000000 86.023 -153.8597
2580.000000 86.136 -155.4345
2620.000000 86.232 -157.0191
2650.000000 86.292 -158.2273
2690.000000 86.356 -159.8206
2720.000000 86.391 -161.0216
2760.000000 86.419 -162.5946
2800.000000 86.427 -164.1372
2850.000000 86.408 -165.9772
2900.000000 86.361 -167.6662
2950.000000 86.296 -169.1559
3000.000000 86.228 -170.4300
3040.000000 86.184 -171.3374
3070.000000 86.158 -172.0238
3110.000000 86.127 -172.9755
3150.000000 86.088 -173.9895
3200.000000 86.010 -175.2958
3250.000000 85.905 -176.5602
3300.000000 85.781 -177.7278
3350.000000 85.643 -178.7845
3400.000000 85.495 -179.7248
3450.000000 85.344 179.4468
3500.000000 85.190 178.7261
3550.000000 85.037 178.0911
3600.000000 84.884 177.5466
3650.000000 84.731 177.0749
3700.000000 84.581 176.6705
3750.000000 84.432 176.3355
3820.000000 84.229 175.9588
3870.000000 84.088 175.7539
3950.000000 83.870 175.5206
4000.000000 83.742 175.4200
4060.000000 83.599 175.3317
4120.000000 83.462 175.2933
4180.000000 83.329 175.2873
4250.000000 83.175 175.3366
4310.000000 83.046 175.4317
4370.000000 82.921 175.5672
4440.000000 82.782 175.7679
4500.000000 82.668 175.9666
4550.000000 82.575 176.1561
4620.000000 82.449 176.4320
4680.000000 82.343 176.6924
4750.000000 82.221 177.0297
4820.000000 82.103 177.4067
4870.000000 82.019 177.7042
4940.000000 81.903 178.1441
5000.000000 81.799 178.5469
5080.000000 81.649 179.1406
5150.000000 81.514 179.6908
5220.000000 81.382 -179.7159
5300.000000 81.235 -179.0021
5380.000000 81.095 -178.2469
5450.000000 80.978 -177.5363
5520.000000 80.868 -176.7898
5600.000000 80.751 -175.8845
5700.000000 80.618 -174.6756
5800.000000 80.505 -173.4220
5900.000000 80.412 -172.0845
6000.000000 80.342 -170.6987
6080.000000 80.304 -169.5218
6150.000000 80.285 -168.4817
6220.000000 80.283 -167.4283
6300.000000 80.307 -166.2045
6400.000000 80.382 -164.6734
6500.000000 80.498 -163.1448
6600.000000 80.647 -161.6205
6700.000000 80.830 -160.0355
6800.000000 81.090 -158.3371
6900.000000 81.431 -157.0782
7000.000000 81.785 -156.1782
7100.000000 82.176 -155.3977
7200.000000 82.627 -154.8677
7300.000000 83.142 -154.7230
7400.000000 83.716 -155.1490
7500.000000 84.342 -156.3142
7620.000000 85.132 -158.9464
7750.000000 85.972 -163.6747
7880.000000 86.662 -170.6159
8000.000000 87.008 -178.7330
8120.000000 86.947 172.2905
8250.000000 86.409 162.8862
8380.000000 85.475 155.0310
8500.000000 84.400 149.7125
8620.000000 83.247 146.2898
8750.000000 82.012 144.3953
8850.000000 81.111 143.9451
9000.000000 79.869 144.4692
9120.000000 78.973 145.6450
9250.000000 78.096 147.4635
9380.000000 77.308 149.6822
9500.000000 76.653 152.0002
9620.000000 76.064 154.5324
9750.000000 75.499 157.4365
9880.000000 75.008 160.4776
10000.000000 74.626 163.3244
10150.000000 74.254 166.8967
10300.000000 73.985 170.3784
10440.000000 73.819 173.4409
10600.000000 73.725 176.5368
10750.000000 73.724 178.6912
10900.000000 73.776 179.4496
11060.000000 73.698 177.5364
11200.000000 73.053 173.8324
11380.000000 71.003 -179.5685
11500.000000 70.573 -160.4890
11720.000000 72.639 -147.1464
11800.000000 73.289 -147.3164
12060.000000 74.680 -150.5485
12200.000000 75.165 -153.0572
12410.000000 75.625 -157.7226
12500.000000 75.714 -159.9453
12650.000000 75.713 -163.7129
12800.000000 75.535 -167.2474
13150.000000 74.638 -172.8939
13200.000000 74.481 -173.3230
13400.000000 73.852 -174.1286
13600.000000 73.285 -173.6636
13800.000000 72.840 -172.2867
14000.000000 72.547 -170.3782
14300.000000 72.435 -167.3072
14500.000000 72.608 -165.7058
14750.000000 73.102 -165.2970
15000.000000 73.788 -167.9741
15250.000000 74.374 -174.7520
15500.000000 74.441 174.8833
15750.000000 73.699 163.5750
16000.000000 72.264 154.6717
16250.000000 70.552 149.7401
16500.000000 68.911 148.3658
16750.000000 67.489 149.1330
17000.000000 66.299 150.6238
17250.000000 65.287 152.1287
17500.000000 64.393 153.1038
17750.000000 63.538 153.0159
18000.000000 62.611 151.8441
18250.000000 61.527 149.9378
18500.000000 60.253 147.6315
18750.000000 58.702 145.4509
19000.000000 56.845 145.4978
19250.000000 55.065 148.7646
19500.000000 53.686 153.0150
19750.000000 52.622 156.6650
20000.000000 51.936 159.6115
