* Measurement data measured by REW V5.31.3
* Source: Loopback 1/2 (2- E2x2), LINE_IN (Master Volume), R, volume: 1.000. Timing signal peak level -34.6 dBFS, measurement signal peak level -30.6 dBFS
* Format: 2M Log Swept Sine, 1 sweep at -12.0 dBFS using an acoustic timing reference
* Dated: Nov 17, 2024 6:02:41 AM
* REW Settings:
*  C-weighting compensation: Off
*  Target level: 75.0 dB
* Note: ; Delay -0.0611 ms (-21 mm, -0.83 in) using estimated IR delay relative to Acoustic reference played from SPEAKER L with no timing offset Clock adjustment: 4.5 ppm
* Measurement: Truthear Hola S2 L
* Smoothing: 1/24 octave
* Frequency Step: 1/48 octave
* Start Frequency: 1.000 Hz
*
* Freq(Hz), SPL(dB), Phase(degrees)
1.000000, 67.003, 173.8036
1.015000, 67.074, 172.2916
1.030000, 67.148, 170.7498
1.044000, 67.222, 169.2809
1.060000, 67.310, 167.5632
1.075000, 67.399, 165.9107
1.090000, 67.493, 164.2130
1.106000, 67.599, 162.3456
1.120000, 67.694, 160.6595
1.138000, 67.818, 158.4246
1.150000, 67.902, 156.8978
1.172000, 68.058, 154.0358
1.180000, 68.115, 152.9783
1.206000, 68.304, 149.4962
1.220000, 68.409, 147.6009
1.241000, 68.568, 144.7441
1.250000, 68.637, 143.5179
1.265000, 68.755, 141.4753
1.280000, 68.875, 139.4380
1.315000, 69.164, 134.7241
1.320000, 69.206, 134.0568
1.340000, 69.379, 131.4061
1.360000, 69.557, 128.7875
1.380000, 69.741, 126.2033
1.400000, 69.930, 123.6542
1.430000, 70.225, 119.8948
1.450000, 70.430, 117.4291
1.475000, 70.697, 114.3907
1.500000, 70.979, 111.4091
1.525000, 71.274, 108.4975
1.550000, 71.582, 105.6640
1.575000, 71.901, 102.9127
1.600000, 72.229, 100.2439
1.625000, 72.563, 97.6556
1.650000, 72.903, 95.1434
1.675000, 73.246, 92.7017
1.700000, 73.591, 90.3239
1.725000, 73.935, 88.0027
1.750000, 74.277, 85.7310
1.775000, 74.615, 83.5009
1.800000, 74.946, 81.3057
1.825000, 75.271, 79.1401
1.850000, 75.592, 77.0069
1.875000, 75.912, 74.9174
1.900000, 76.233, 72.8790
1.925000, 76.554, 70.8950
1.950000, 76.874, 68.9662
1.975000, 77.194, 67.0920
2.000000, 77.512, 65.2704
2.030000, 77.890, 63.1497
2.060000, 78.265, 61.0945
2.090000, 78.635, 59.0977
2.120000, 78.998, 57.1515
2.140000, 79.237, 55.8782
2.180000, 79.704, 53.3798
2.200000, 79.932, 52.1514
2.240000, 80.379, 49.7372
2.270000, 80.707, 47.9692
2.300000, 81.029, 46.2405
2.330000, 81.346, 44.5515
2.360000, 81.658, 42.9014
2.400000, 82.065, 40.7586
2.430000, 82.364, 39.1912
2.470000, 82.755, 37.1480
2.500000, 83.043, 35.6459
2.540000, 83.419, 33.6761
2.580000, 83.786, 31.7351
2.620000, 84.143, 29.8187
2.650000, 84.405, 28.3999
2.690000, 84.745, 26.5370
2.720000, 84.995, 25.1631
2.760000, 85.320, 23.3633
2.800000, 85.638, 21.5997
2.850000, 86.024, 19.4431
2.900000, 86.400, 17.3335
2.950000, 86.765, 15.2576
3.000000, 87.119, 13.1998
3.040000, 87.393, 11.5686
3.070000, 87.593, 10.3573
3.110000, 87.854, 8.7616
3.150000, 88.109, 7.1906
3.200000, 88.418, 5.2637
3.250000, 88.719, 3.3779
3.300000, 89.010, 1.5265
3.350000, 89.293, -0.3091
3.400000, 89.565, -2.1367
3.450000, 89.828, -3.9482
3.500000, 90.082, -5.7341
3.550000, 90.328, -7.4872
3.600000, 90.566, -9.2028
3.650000, 90.797, -10.8810
3.700000, 91.020, -12.5355
3.750000, 91.235, -14.1820
3.820000, 91.523, -16.4684
3.870000, 91.720, -18.0763
3.950000, 92.021, -20.5844
4.000000, 92.202, -22.1045
4.060000, 92.411, -23.8888
4.120000, 92.610, -25.6534
4.180000, 92.800, -27.4005
4.250000, 93.011, -29.4015
4.310000, 93.184, -31.0712
4.370000, 93.350, -32.6903
4.440000, 93.536, -34.5245
4.500000, 93.687, -36.0693
4.550000, 93.808, -37.3386
4.620000, 93.969, -39.0796
4.680000, 94.102, -40.5297
4.750000, 94.252, -42.1639
4.820000, 94.395, -43.7439
4.870000, 94.494, -44.8483
4.940000, 94.626, -46.3622
5.000000, 94.735, -47.6267
5.080000, 94.875, -49.2583
5.150000, 94.995, -50.6323
5.220000, 95.112, -51.9629
5.300000, 95.240, -53.4382
5.380000, 95.364, -54.8672
5.450000, 95.471, -56.0796
5.520000, 95.576, -57.2563
5.600000, 95.695, -58.5599
5.700000, 95.840, -60.1354
5.800000, 95.983, -61.6601
5.900000, 96.124, -63.1396
6.000000, 96.264, -64.5754
6.080000, 96.375, -65.6960
6.150000, 96.471, -66.6596
6.220000, 96.566, -67.6095
6.300000, 96.673, -68.6797
6.400000, 96.806, -69.9943
6.500000, 96.937, -71.2842
6.600000, 97.065, -72.5521
6.700000, 97.190, -73.8008
6.800000, 97.313, -75.0302
6.900000, 97.433, -76.2382
7.000000, 97.550, -77.4246
7.100000, 97.664, -78.5916
7.200000, 97.775, -79.7391
7.300000, 97.884, -80.8655
7.400000, 97.991, -81.9707
7.500000, 98.096, -83.0566
7.620000, 98.218, -84.3359
7.750000, 98.348, -85.6934
7.880000, 98.475, -87.0239
8.000000, 98.588, -88.2308
8.120000, 98.700, -89.4205
8.250000, 98.817, -90.6918
8.380000, 98.929, -91.9435
8.500000, 99.029, -93.0830
8.620000, 99.125, -94.2081
8.750000, 99.223, -95.4036
8.850000, 99.294, -96.3044
9.000000, 99.394, -97.6262
9.120000, 99.469, -98.6488
9.250000, 99.546, -99.7153
9.380000, 99.617, -100.7400
9.500000, 99.680, -101.6438
9.620000, 99.742, -102.5034
9.750000, 99.807, -103.3887
9.880000, 99.865, -104.2308
10.000000, 99.913, -104.9711
10.150000, 99.966, -105.8553
10.300000, 100.019, -106.7139
10.440000, 100.072, -107.4990
10.600000, 100.136, -108.3969
10.750000, 100.203, -109.2561
10.900000, 100.273, -110.1366
11.060000, 100.347, -111.1102
11.200000, 100.410, -111.9920
11.380000, 100.486, -113.1552
11.500000, 100.531, -113.9464
11.720000, 100.602, -115.4026
11.800000, 100.623, -115.9266
12.060000, 100.676, -117.5850
12.200000, 100.696, -118.4291
12.410000, 100.718, -119.6190
12.500000, 100.725, -120.0968
12.650000, 100.738, -120.8502
12.800000, 100.752, -121.5560
13.150000, 100.797, -123.0546
13.200000, 100.805, -123.2583
13.400000, 100.844, -124.0612
13.600000, 100.890, -124.8669
13.800000, 100.940, -125.6949
14.000000, 100.992, -126.5560
14.300000, 101.068, -127.9115
14.500000, 101.112, -128.8469
14.750000, 101.157, -130.0280
15.000000, 101.191, -131.1976
15.250000, 101.217, -132.3304
15.500000, 101.237, -133.4115
15.750000, 101.254, -134.4344
16.000000, 101.271, -135.4008
16.250000, 101.289, -136.3185
16.500000, 101.310, -137.1965
16.750000, 101.335, -138.0444
17.000000, 101.361, -138.8703
17.250000, 101.390, -139.6797
17.500000, 101.421, -140.4773
17.750000, 101.454, -141.2666
18.000000, 101.487, -142.0511
18.250000, 101.518, -142.8339
18.500000, 101.549, -143.6168
18.750000, 101.576, -144.4001
19.000000, 101.601, -145.1813
19.250000, 101.621, -145.9541
19.500000, 101.637, -146.7101
19.750000, 101.647, -147.4401
20.000000, 101.654, -148.1355
20.299999, 101.659, -148.9193
20.600000, 101.664, -149.6512
20.900000, 101.671, -150.3463
21.200001, 101.682, -151.0258
21.400000, 101.691, -151.4802
21.799999, 101.708, -152.4074
22.000000, 101.714, -152.8796
22.400000, 101.719, -153.8247
22.700001, 101.717, -154.5144
23.000000, 101.711, -155.1740
23.299999, 101.704, -155.8014
23.600000, 101.699, -156.4038
24.000000, 101.696, -157.1917
24.299999, 101.696, -157.7861
24.700001, 101.695, -158.5902
25.000000, 101.692, -159.1962
25.400000, 101.686, -159.9907
25.799999, 101.676, -160.7535
26.200001, 101.667, -161.4783
26.500000, 101.660, -162.0010
26.900000, 101.655, -162.6796
27.200001, 101.653, -163.1812
27.600000, 101.650, -163.8451
28.000000, 101.645, -164.5024
28.500000, 101.636, -165.3040
29.000000, 101.624, -166.0720
29.500000, 101.611, -166.8066
30.000000, 101.599, -167.5212
30.400000, 101.588, -168.0864
30.700001, 101.579, -168.5067
31.100000, 101.564, -169.0587
31.500000, 101.547, -169.5975
32.000000, 101.525, -170.2518
32.500000, 101.501, -170.8897
33.000000, 101.477, -171.5148
33.500000, 101.454, -172.1269
34.000000, 101.431, -172.7278
34.500000, 101.410, -173.3229
35.000000, 101.388, -173.9142
35.500000, 101.365, -174.4964
36.000000, 101.340, -175.0621
36.500000, 101.316, -175.6096
37.000000, 101.291, -176.1398
37.500000, 101.265, -176.6494
38.200001, 101.229, -177.3186
38.700001, 101.205, -177.7711
39.500000, 101.169, -178.4917
40.000000, 101.145, -178.9495
40.599998, 101.113, -179.4900
41.200001, 101.079, 179.9938
41.799999, 101.046, 179.4934
42.500000, 101.008, 178.9131
43.099998, 100.975, 178.4229
43.700001, 100.941, 177.9445
44.400002, 100.903, 177.3942
45.000000, 100.868, 176.9318
45.500000, 100.838, 176.5656
46.200001, 100.797, 176.0865
46.799999, 100.765, 175.6843
47.500000, 100.727, 175.2047
48.200001, 100.683, 174.7429
48.700001, 100.651, 174.4427
49.400002, 100.611, 174.0500
50.000000, 100.581, 173.7050
50.799999, 100.540, 173.2014
51.500000, 100.497, 172.7455
52.200001, 100.447, 172.3231
53.000000, 100.392, 171.8932
53.799999, 100.340, 171.4833
54.500000, 100.295, 171.1425
55.200001, 100.253, 170.8215
56.000000, 100.210, 170.4243
57.000000, 100.144, 169.9227
58.000000, 100.082, 169.5706
59.000000, 100.042, 169.1614
60.000000, 99.987, 168.6750
60.799999, 99.937, 168.3552
61.500000, 99.898, 168.0767
62.200001, 99.855, 167.7928
63.000000, 99.804, 167.5173
64.000000, 99.750, 167.2018
65.000000, 99.697, 166.8499
66.000000, 99.643, 166.5051
67.000000, 99.590, 166.1480
68.000000, 99.532, 165.8114
69.000000, 99.474, 165.5335
70.000000, 99.420, 165.2753
71.000000, 99.366, 165.0165
72.000000, 99.309, 164.7673
73.000000, 99.248, 164.5457
74.000000, 99.191, 164.3903
75.000000, 99.149, 164.1964
76.199997, 99.093, 163.8152
77.500000, 99.018, 163.4726
78.800003, 98.954, 163.1809
80.000000, 98.898, 162.9153
81.199997, 98.842, 162.6625
82.500000, 98.777, 162.4287
83.800003, 98.711, 162.2415
85.000000, 98.651, 162.0709
86.199997, 98.589, 161.8655
87.500000, 98.518, 161.6522
88.500000, 98.468, 161.5107
90.000000, 98.401, 161.3229
91.199997, 98.354, 161.1848
92.500000, 98.300, 161.0681
93.800003, 98.243, 161.0100
95.000000, 98.187, 160.9531
96.199997, 98.127, 160.8782
97.500000, 98.058, 160.7595
98.800003, 97.995, 160.6248
100.000000, 97.943, 160.4286
101.500000, 97.879, 160.2303
103.000000, 97.824, 160.1208
104.400002, 97.785, 160.0701
106.000000, 97.722, 159.9105
107.500000, 97.657, 159.9077
109.000000, 97.603, 159.7344
110.599998, 97.522, 159.5223
112.000000, 97.450, 159.4794
113.800003, 97.365, 159.5791
115.000000, 97.316, 159.6625
117.199997, 97.229, 159.7520
118.000000, 97.201, 159.7173
120.599998, 97.107, 159.4040
122.000000, 97.056, 159.2954
124.099998, 97.014, 159.2644
125.000000, 96.996, 159.2277
126.500000, 96.956, 159.2570
128.000000, 96.920, 159.3464
131.500000, 96.799, 159.4280
132.000000, 96.786, 159.4503
134.000000, 96.735, 159.3669
136.000000, 96.662, 159.3262
138.000000, 96.594, 159.4334
140.000000, 96.543, 159.5175
143.000000, 96.458, 159.5109
145.000000, 96.403, 159.5710
147.500000, 96.340, 159.6653
150.000000, 96.287, 159.8096
152.500000, 96.244, 159.8948
155.000000, 96.189, 159.9221
157.500000, 96.121, 160.0571
160.000000, 96.054, 160.2776
162.500000, 95.970, 160.4388
165.000000, 95.863, 160.4843
167.500000, 95.716, 160.4673
170.000000, 95.572, 160.6033
172.500000, 95.466, 160.7905
175.000000, 95.384, 160.8999
177.500000, 95.306, 160.9614
180.000000, 95.247, 161.0900
182.500000, 95.196, 161.3207
185.000000, 95.143, 161.6677
187.500000, 95.110, 162.0163
190.000000, 95.110, 162.1099
192.500000, 95.123, 162.1343
195.000000, 95.134, 162.1391
197.500000, 95.132, 162.2156
200.000000, 95.137, 162.3847
203.000000, 95.146, 162.5071
206.000000, 95.111, 162.4915
209.000000, 95.075, 162.8036
212.000000, 95.050, 163.3713
214.000000, 95.019, 163.7070
218.000000, 94.915, 163.9988
220.000000, 94.868, 164.0203
224.000000, 94.799, 164.1754
227.000000, 94.771, 164.3649
230.000000, 94.747, 164.5781
233.000000, 94.715, 164.8468
236.000000, 94.675, 165.0709
240.000000, 94.628, 165.3538
243.000000, 94.607, 165.4518
247.000000, 94.563, 165.5701
250.000000, 94.518, 165.7970
254.000000, 94.471, 166.1045
258.000000, 94.439, 166.4495
262.000000, 94.413, 166.8099
265.000000, 94.397, 166.9856
269.000000, 94.375, 167.1369
272.000000, 94.355, 167.1958
276.000000, 94.317, 167.2958
280.000000, 94.270, 167.5283
285.000000, 94.220, 167.9490
290.000000, 94.155, 168.3065
295.000000, 94.103, 168.5063
300.000000, 94.070, 168.7528
304.000000, 94.045, 169.0398
307.000000, 94.025, 169.2214
311.000000, 93.997, 169.4227
315.000000, 93.960, 169.6254
320.000000, 93.919, 169.9380
325.000000, 93.885, 170.3536
330.000000, 93.850, 170.7396
335.000000, 93.808, 171.0273
340.000000, 93.776, 171.2333
345.000000, 93.754, 171.4849
350.000000, 93.725, 171.8413
355.000000, 93.699, 172.1791
360.000000, 93.684, 172.4531
365.000000, 93.675, 172.6843
370.000000, 93.664, 172.9102
375.000000, 93.651, 173.2059
382.000000, 93.623, 173.6436
387.000000, 93.599, 173.9481
395.000000, 93.554, 174.3858
400.000000, 93.527, 174.6674
406.000000, 93.497, 175.0396
412.000000, 93.470, 175.4036
418.000000, 93.448, 175.7389
425.000000, 93.430, 176.0800
431.000000, 93.417, 176.3969
437.000000, 93.404, 176.7311
444.000000, 93.388, 177.1058
450.000000, 93.369, 177.4192
455.000000, 93.350, 177.6824
462.000000, 93.322, 178.0793
468.000000, 93.300, 178.4346
475.000000, 93.274, 178.8304
482.000000, 93.255, 179.2017
487.000000, 93.246, 179.4617
494.000000, 93.233, 179.8025
500.000000, 93.220, -179.8848
508.000000, 93.206, -179.4446
515.000000, 93.198, -179.0798
522.000000, 93.192, -178.7228
530.000000, 93.185, -178.2978
538.000000, 93.178, -177.8738
545.000000, 93.171, -177.5917
552.000000, 93.166, -177.2952
560.000000, 93.158, -176.8218
570.000000, 93.128, -176.1851
580.000000, 93.107, -175.6033
590.000000, 93.115, -175.1478
600.000000, 93.133, -174.7223
608.000000, 93.140, -174.3733
615.000000, 93.131, -173.9893
622.000000, 93.113, -173.5637
630.000000, 93.088, -173.0835
640.000000, 93.065, -172.5090
650.000000, 93.059, -172.0483
660.000000, 93.060, -171.5670
670.000000, 93.058, -171.0534
680.000000, 93.050, -170.4622
690.000000, 93.048, -169.8967
700.000000, 93.062, -169.3843
710.000000, 93.091, -168.8795
720.000000, 93.127, -168.3695
730.000000, 93.156, -167.8717
740.000000, 93.171, -167.3248
750.000000, 93.182, -166.6995
762.000000, 93.195, -166.0030
775.000000, 93.228, -165.3513
788.000000, 93.256, -164.7114
800.000000, 93.278, -163.9399
812.000000, 93.306, -163.1984
825.000000, 93.344, -162.4867
838.000000, 93.420, -161.7997
850.000000, 93.474, -161.2485
862.000000, 93.513, -160.5735
875.000000, 93.557, -159.7188
885.000000, 93.596, -159.2225
900.000000, 93.668, -158.5574
912.000000, 93.710, -157.8762
925.000000, 93.752, -157.1511
938.000000, 93.820, -156.5525
950.000000, 93.903, -156.1010
962.000000, 93.984, -155.6362
975.000000, 94.058, -155.0598
988.000000, 94.120, -154.5015
1000.000000, 94.177, -154.0481
1015.000000, 94.262, -153.5464
1030.000000, 94.351, -153.0883
1044.000000, 94.439, -152.6468
1060.000000, 94.552, -152.2168
1075.000000, 94.659, -151.9467
1090.000000, 94.758, -151.6070
1106.000000, 94.857, -151.2384
1120.000000, 94.949, -151.0746
1138.000000, 95.060, -150.8915
1150.000000, 95.126, -150.6910
1172.000000, 95.252, -150.4700
1180.000000, 95.300, -150.4589
1206.000000, 95.449, -150.3016
1220.000000, 95.521, -150.2363
1241.000000, 95.632, -150.2283
1250.000000, 95.679, -150.2067
1265.000000, 95.757, -150.1783
1280.000000, 95.835, -150.2053
1315.000000, 95.996, -150.2223
1320.000000, 96.018, -150.2191
1340.000000, 96.110, -150.2976
1360.000000, 96.197, -150.3750
1380.000000, 96.276, -150.3852
1400.000000, 96.347, -150.4838
1430.000000, 96.454, -150.4978
1450.000000, 96.547, -150.5833
1475.000000, 96.689, -150.7469
1500.000000, 96.797, -150.8845
1525.000000, 96.842, -150.8524
1550.000000, 96.873, -150.7952
1575.000000, 96.926, -150.8078
1600.000000, 96.990, -150.6230
1625.000000, 97.078, -150.3620
1650.000000, 97.204, -150.0505
1675.000000, 97.359, -149.8024
1700.000000, 97.518, -149.7725
1725.000000, 97.662, -149.9913
1750.000000, 97.781, -150.4360
1775.000000, 97.871, -150.8867
1800.000000, 97.947, -151.2901
1825.000000, 98.032, -151.6797
1850.000000, 98.110, -152.1288
1875.000000, 98.148, -152.3629
1900.000000, 98.166, -152.5317
1925.000000, 98.206, -152.7843
1950.000000, 98.272, -153.0205
1975.000000, 98.340, -153.2351
2000.000000, 98.401, -153.3627
2030.000000, 98.451, -153.5100
2060.000000, 98.471, -153.4532
2090.000000, 98.498, -153.2766
2120.000000, 98.588, -153.1208
2140.000000, 98.677, -153.0654
2180.000000, 98.848, -153.0164
2200.000000, 98.910, -152.9807
2240.000000, 99.016, -152.8885
2270.000000, 99.126, -152.7084
2300.000000, 99.298, -152.5224
2330.000000, 99.529, -152.5848
2360.000000, 99.769, -152.9865
2400.000000, 100.023, -154.0159
2430.000000, 100.149, -154.9487
2470.000000, 100.273, -156.1949
2500.000000, 100.355, -157.0754
2540.000000, 100.445, -158.0181
2580.000000, 100.533, -158.8337
2620.000000, 100.634, -159.6364
2650.000000, 100.710, -160.2535
2690.000000, 100.815, -161.1664
2720.000000, 100.892, -161.9073
2760.000000, 100.980, -162.8853
2800.000000, 101.045, -163.7847
2850.000000, 101.102, -164.7720
2900.000000, 101.140, -165.5864
2950.000000, 101.183, -166.3073
3000.000000, 101.259, -167.1129
3040.000000, 101.344, -167.9069
3070.000000, 101.411, -168.5780
3110.000000, 101.485, -169.5052
3150.000000, 101.536, -170.4284
3200.000000, 101.569, -171.5662
3250.000000, 101.567, -172.6613
3300.000000, 101.517, -173.6740
3350.000000, 101.422, -174.5720
3400.000000, 101.323, -175.3306
3450.000000, 101.279, -176.1122
3500.000000, 101.271, -176.8480
3550.000000, 101.266, -177.5490
3600.000000, 101.283, -178.3442
3650.000000, 101.315, -179.2844
3700.000000, 101.307, 179.7550
3750.000000, 101.244, 178.7614
3820.000000, 101.085, 177.4686
3870.000000, 100.970, 176.4972
3950.000000, 100.713, 175.1907
4000.000000, 100.531, 174.4221
4060.000000, 100.340, 173.5988
4120.000000, 100.212, 172.7821
4180.000000, 100.135, 172.0588
4250.000000, 100.084, 171.2667
4310.000000, 100.060, 170.6115
4370.000000, 100.030, 170.0205
4440.000000, 99.998, 169.3074
4500.000000, 99.950, 168.7593
4550.000000, 99.891, 168.3267
4620.000000, 99.764, 167.7493
4680.000000, 99.590, 167.4143
4750.000000, 99.392, 167.0546
4820.000000, 99.243, 166.7083
4870.000000, 99.138, 166.5181
4940.000000, 98.966, 166.3417
5000.000000, 98.809, 166.2391
5080.000000, 98.612, 166.1611
5150.000000, 98.460, 166.1204
5220.000000, 98.281, 166.1593
5300.000000, 98.039, 166.3589
5380.000000, 97.823, 166.5855
5450.000000, 97.639, 166.8926
5520.000000, 97.458, 167.2797
5600.000000, 97.259, 167.8066
5700.000000, 97.019, 168.6067
5800.000000, 96.814, 169.4888
5900.000000, 96.589, 170.5201
6000.000000, 96.382, 171.6024
6080.000000, 96.234, 172.4987
6150.000000, 96.099, 173.3416
6220.000000, 95.980, 174.1814
6300.000000, 95.880, 175.1382
6400.000000, 95.805, 176.3135
6500.000000, 95.777, 177.4525
6600.000000, 95.800, 178.4967
6700.000000, 95.845, 179.4517
6800.000000, 95.912, -179.6882
6900.000000, 96.024, -178.9799
7000.000000, 96.149, -178.3906
7100.000000, 96.267, -177.8759
7200.000000, 96.415, -177.4679
7300.000000, 96.622, -177.1774
7400.000000, 96.900, -177.0584
7500.000000, 97.239, -177.2053
7620.000000, 97.690, -177.9962
7750.000000, 98.179, 179.9010
7880.000000, 98.604, 175.8858
8000.000000, 98.827, 170.3598
8120.000000, 98.777, 163.4219
8250.000000, 98.334, 155.3822
8380.000000, 97.463, 148.1688
8500.000000, 96.335, 143.1723
8620.000000, 95.086, 140.0439
8750.000000, 93.689, 138.8716
8850.000000, 92.600, 139.4189
9000.000000, 91.074, 142.2280
9120.000000, 89.976, 146.0596
9250.000000, 88.938, 151.7192
9380.000000, 88.137, 158.6996
9500.000000, 87.655, 166.0026
9620.000000, 87.506, 173.3431
9750.000000, 87.713, -179.8374
9880.000000, 88.166, -175.2209
10000.000000, 88.634, -173.1977
10150.000000, 89.042, -172.9351
10300.000000, 89.127, -173.7642
10440.000000, 88.949, -174.3530
10600.000000, 88.586, -174.0984
10750.000000, 88.204, -172.7959
10900.000000, 87.847, -170.6027
11060.000000, 87.522, -167.5112
11200.000000, 87.293, -164.3474
11380.000000, 87.083, -159.8599
11500.000000, 87.008, -156.6840
11720.000000, 87.081, -150.6846
11800.000000, 87.177, -148.4996
12060.000000, 87.619, -141.4172
12200.000000, 87.948, -137.6543
12410.000000, 88.642, -132.2509
12500.000000, 89.017, -130.0668
12650.000000, 89.747, -126.6495
12800.000000, 90.634, -123.6387
13150.000000, 93.188, -119.6071
13200.000000, 93.572, -119.6023
13400.000000, 95.096, -121.9811
13600.000000, 96.414, -129.6758
13800.000000, 97.062, -143.5458
14000.000000, 96.798, -161.4286
14300.000000, 94.900, 174.8926
14500.000000, 93.133, 165.6455
14750.000000, 91.130, 160.6227
15000.000000, 89.621, 159.8641
15250.000000, 88.538, 160.9579
15500.000000, 87.660, 162.4182
15750.000000, 86.639, 163.3296
16000.000000, 85.624, 163.0944
16250.000000, 84.818, 161.3849
16500.000000, 84.133, 158.2234
16750.000000, 83.458, 154.0792
17000.000000, 82.612, 149.7705
17250.000000, 81.531, 146.1974
17500.000000, 80.293, 144.0399
17750.000000, 78.997, 143.5066
18000.000000, 77.737, 144.3811
18250.000000, 76.582, 146.2548
18500.000000, 75.554, 148.6352
18750.000000, 74.588, 151.1704
19000.000000, 73.595, 153.7217
19250.000000, 72.546, 156.2725
19500.000000, 71.401, 159.0481
19750.000000, 70.117, 162.4197
20000.000000, 68.718, 166.8379
20300.000000, 67.054, 173.3627
20600.000000, 65.516, 179.4677
20900.000000, 63.912, -175.5558
21200.000000, 62.305, -169.7065
21400.000000, 61.510, -166.1525
21800.000000, 60.981, -163.6365
22000.000000, 61.260, -163.9512
22400.000000, 62.139, -164.6409
22700.000000, 62.015, -164.0618
23000.000000, 60.459, -161.7346
23300.000000, 57.226, -162.5460
23600.000000, 52.491, 170.0657
24000.000000, 45.949, 143.7743
