* Measurement data measured by REW V5.31.3
* Source: USB-C to 3.5mm Headphone Jack Adapter, USB-C to 3.5mm Headphone Jack Adapter, 0, volume: 0.264
* Format: 256k Log Swept Sine, 1 sweep at -12.0 dBFS with no timing reference
* Dated: Apr 15, 2025 6:34:04 AM
* REW Settings:
*  C-weighting compensation: Off
*  Target level: 75.0 dB
* Note: ; 
* Measurement: SN420 Stock R
* Smoothing: 1/24 octave
* Frequency Step: 1/48 octave
* Start Frequency: 1.000 Hz
*
* Freq(Hz), SPL(dB), Phase(degrees)
1.000000, 82.432, -150.8226
1.015000, 82.601, -152.3510
1.030000, 82.769, -153.8445
1.044000, 82.924, -155.2098
1.060000, 83.098, -156.7397
1.075000, 83.258, -158.1482
1.090000, 83.415, -159.5360
1.106000, 83.580, -161.0034
1.120000, 83.722, -162.2876
1.138000, 83.905, -163.9441
1.150000, 84.027, -165.0501
1.172000, 84.249, -167.0756
1.180000, 84.329, -167.8100
1.206000, 84.590, -170.1827
1.220000, 84.729, -171.4480
1.241000, 84.937, -173.3249
1.250000, 85.025, -174.1204
1.265000, 85.172, -175.4329
1.280000, 85.318, -176.7273
1.315000, 85.653, -179.6693
1.320000, 85.700, 179.9200
1.340000, 85.888, 178.3025
1.360000, 86.074, 176.7271
1.380000, 86.256, 175.1950
1.400000, 86.436, 173.7072
1.430000, 86.699, 171.5598
1.450000, 86.870, 170.1834
1.475000, 87.079, 168.5139
1.500000, 87.284, 166.8735
1.525000, 87.484, 165.2509
1.550000, 87.679, 163.6475
1.575000, 87.871, 162.0658
1.600000, 88.058, 160.5078
1.625000, 88.241, 158.9753
1.650000, 88.421, 157.4692
1.675000, 88.596, 155.9905
1.700000, 88.768, 154.5394
1.725000, 88.937, 153.1161
1.750000, 89.101, 151.7203
1.775000, 89.263, 150.3514
1.800000, 89.421, 149.0084
1.825000, 89.576, 147.6877
1.850000, 89.727, 146.3775
1.875000, 89.874, 145.0644
1.900000, 90.017, 143.7471
1.925000, 90.157, 142.4296
1.950000, 90.292, 141.1161
1.975000, 90.425, 139.8110
2.000000, 90.553, 138.5178
2.030000, 90.703, 136.9867
2.060000, 90.849, 135.4831
2.090000, 90.990, 134.0119
2.120000, 91.128, 132.5770
2.140000, 91.217, 131.6422
2.180000, 91.392, 129.8271
2.200000, 91.476, 128.9431
2.240000, 91.640, 127.1928
2.270000, 91.758, 125.8831
2.300000, 91.871, 124.5773
2.330000, 91.979, 123.2798
2.360000, 92.084, 121.9947
2.400000, 92.218, 120.3077
2.430000, 92.315, 119.0675
2.470000, 92.438, 117.4542
2.500000, 92.528, 116.2791
2.540000, 92.643, 114.7634
2.580000, 92.753, 113.2995
2.620000, 92.857, 111.8605
2.650000, 92.931, 110.7899
2.690000, 93.024, 109.3759
2.720000, 93.090, 108.3280
2.760000, 93.175, 106.9524
2.800000, 93.254, 105.6066
2.850000, 93.349, 103.9758
2.900000, 93.438, 102.4120
2.950000, 93.522, 100.9147
3.000000, 93.600, 99.4587
3.040000, 93.657, 98.3153
3.070000, 93.697, 97.4709
3.110000, 93.748, 96.3649
3.150000, 93.796, 95.2842
3.200000, 93.852, 93.9745
3.250000, 93.906, 92.7172
3.300000, 93.958, 91.5171
3.350000, 94.007, 90.3683
3.400000, 94.051, 89.2608
3.450000, 94.093, 88.1903
3.500000, 94.131, 87.1548
3.550000, 94.169, 86.1535
3.600000, 94.205, 85.1863
3.650000, 94.242, 84.2540
3.700000, 94.278, 83.3584
3.750000, 94.314, 82.4993
3.820000, 94.362, 81.3510
3.870000, 94.396, 80.5640
3.950000, 94.450, 79.3516
4.000000, 94.486, 78.6187
4.060000, 94.529, 77.7650
4.120000, 94.574, 76.9453
4.180000, 94.619, 76.1572
4.250000, 94.673, 75.2677
4.310000, 94.720, 74.5222
4.370000, 94.768, 73.7854
4.440000, 94.824, 72.9359
4.500000, 94.874, 72.2214
4.550000, 94.916, 71.6357
4.620000, 94.976, 70.8272
4.680000, 95.026, 70.1414
4.750000, 95.084, 69.3457
4.820000, 95.142, 68.5526
4.870000, 95.183, 67.9886
4.940000, 95.239, 67.2045
5.000000, 95.287, 66.5384
5.080000, 95.349, 65.6607
5.150000, 95.401, 64.9020
5.220000, 95.451, 64.1491
5.300000, 95.506, 63.2966
5.380000, 95.559, 62.4573
5.450000, 95.604, 61.7379
5.520000, 95.648, 61.0343
5.600000, 95.696, 60.2468
5.700000, 95.753, 59.2852
5.800000, 95.809, 58.3513
5.900000, 95.866, 57.4491
6.000000, 95.921, 56.5789
6.080000, 95.966, 55.9009
6.150000, 96.005, 55.3170
6.220000, 96.046, 54.7401
6.300000, 96.093, 54.0905
6.400000, 96.154, 53.2935
6.500000, 96.216, 52.5031
6.600000, 96.279, 51.7078
6.700000, 96.344, 50.9069
6.800000, 96.409, 50.1018
6.900000, 96.473, 49.2879
7.000000, 96.535, 48.4592
7.100000, 96.595, 47.6147
7.200000, 96.652, 46.7610
7.300000, 96.704, 45.9046
7.400000, 96.751, 45.0440
7.500000, 96.793, 44.1786
7.620000, 96.835, 43.1522
7.750000, 96.871, 42.0748
7.880000, 96.897, 41.0301
8.000000, 96.913, 40.1118
8.120000, 96.922, 39.2566
8.250000, 96.927, 38.3991
8.380000, 96.928, 37.6160
8.500000, 96.930, 36.9676
8.620000, 96.932, 36.3880
8.750000, 96.938, 35.8207
8.850000, 96.947, 35.4214
9.000000, 96.969, 34.8787
9.120000, 96.993, 34.4673
9.250000, 97.027, 34.0252
9.380000, 97.068, 33.5831
9.500000, 97.110, 33.1580
9.620000, 97.153, 32.7050
9.750000, 97.202, 32.1856
9.880000, 97.248, 31.6378
10.000000, 97.288, 31.1053
10.150000, 97.331, 30.4143
10.300000, 97.365, 29.7192
10.440000, 97.388, 29.0744
10.600000, 97.405, 28.3658
10.750000, 97.413, 27.7501
10.900000, 97.415, 27.1847
11.060000, 97.417, 26.6472
11.200000, 97.420, 26.2313
11.380000, 97.428, 25.7483
11.500000, 97.439, 25.4509
11.720000, 97.470, 24.9150
11.800000, 97.485, 24.7111
12.060000, 97.542, 23.9867
12.200000, 97.574, 23.5367
12.410000, 97.617, 22.7834
12.500000, 97.632, 22.4351
12.650000, 97.651, 21.8260
12.800000, 97.660, 21.2021
13.150000, 97.643, 19.7877
13.200000, 97.637, 19.6014
13.400000, 97.605, 18.9142
13.600000, 97.569, 18.3319
13.800000, 97.537, 17.8579
14.000000, 97.515, 17.4623
14.300000, 97.510, 16.9326
14.500000, 97.525, 16.5493
14.750000, 97.557, 15.9713
15.000000, 97.591, 15.2561
15.250000, 97.614, 14.4219
15.500000, 97.616, 13.5327
15.750000, 97.597, 12.6639
16.000000, 97.560, 11.8921
16.250000, 97.516, 11.2622
16.500000, 97.475, 10.7825
16.750000, 97.448, 10.4257
17.000000, 97.441, 10.1370
17.250000, 97.453, 9.8597
17.500000, 97.480, 9.5457
17.750000, 97.517, 9.1677
18.000000, 97.557, 8.7177
18.250000, 97.595, 8.2001
18.500000, 97.628, 7.6268
18.750000, 97.652, 7.0135
19.000000, 97.664, 6.3811
19.250000, 97.662, 5.7594
19.500000, 97.645, 5.1860
19.750000, 97.616, 4.7003
20.000000, 97.579, 4.3364
20.299999, 97.540, 4.0740
20.600000, 97.520, 3.9599
20.900000, 97.531, 3.8886
21.200001, 97.571, 3.7247
21.400000, 97.606, 3.5094
21.799999, 97.668, 2.7855
22.000000, 97.683, 2.3076
22.400000, 97.663, 1.2900
22.700001, 97.610, 0.6280
23.000000, 97.542, 0.1501
23.299999, 97.479, -0.1411
23.600000, 97.440, -0.3231
24.000000, 97.428, -0.6073
24.299999, 97.437, -0.9777
24.700001, 97.441, -1.7268
25.000000, 97.420, -2.4135
25.400000, 97.355, -3.3254
25.799999, 97.258, -4.0629
26.200001, 97.156, -4.5405
26.500000, 97.092, -4.7490
26.900000, 97.036, -4.9205
27.200001, 97.016, -5.0420
27.600000, 97.011, -5.2716
28.000000, 97.017, -5.6039
28.500000, 97.026, -6.1156
29.000000, 97.034, -6.6550
29.500000, 97.049, -7.2192
30.000000, 97.067, -7.8763
30.400000, 97.069, -8.4755
30.700001, 97.058, -8.9307
31.100000, 97.027, -9.4764
31.500000, 96.988, -9.9020
32.000000, 96.946, -10.2929
32.500000, 96.919, -10.6541
33.000000, 96.892, -11.0692
33.500000, 96.854, -11.4926
34.000000, 96.811, -11.8584
34.500000, 96.774, -12.1886
35.000000, 96.744, -12.5557
35.500000, 96.711, -12.9786
36.000000, 96.672, -13.4198
36.500000, 96.630, -13.8576
37.000000, 96.589, -14.3048
37.500000, 96.543, -14.7567
38.200001, 96.472, -15.3243
38.700001, 96.426, -15.6688
39.500000, 96.365, -16.2066
40.000000, 96.327, -16.5472
40.599998, 96.280, -16.9216
41.200001, 96.235, -17.2566
41.799999, 96.195, -17.5784
42.500000, 96.153, -17.9622
43.099998, 96.122, -18.3546
43.700001, 96.081, -18.8422
44.400002, 96.006, -19.4119
45.000000, 95.932, -19.7689
45.500000, 95.881, -19.9994
46.200001, 95.825, -20.3668
46.799999, 95.775, -20.7395
47.500000, 95.712, -21.1375
48.200001, 95.658, -21.4949
48.700001, 95.621, -21.7622
49.400002, 95.565, -22.1248
50.000000, 95.515, -22.3788
50.799999, 95.457, -22.6811
51.500000, 95.407, -22.9824
52.200001, 95.345, -23.2822
53.000000, 95.270, -23.5438
53.799999, 95.204, -23.7789
54.500000, 95.150, -24.0574
55.200001, 95.087, -24.3792
56.000000, 95.009, -24.7032
57.000000, 94.922, -25.0802
58.000000, 94.835, -25.5120
59.000000, 94.739, -25.8822
60.000000, 94.650, -26.1376
60.799999, 94.589, -26.3348
61.500000, 94.536, -26.5541
62.200001, 94.477, -26.7796
63.000000, 94.407, -27.0002
64.000000, 94.324, -27.3030
65.000000, 94.231, -27.6278
66.000000, 94.137, -27.8725
67.000000, 94.050, -28.1016
68.000000, 93.963, -28.3029
69.000000, 93.882, -28.4676
70.000000, 93.803, -28.6451
71.000000, 93.720, -28.8303
72.000000, 93.634, -28.9855
73.000000, 93.547, -29.1291
74.000000, 93.458, -29.2682
75.000000, 93.370, -29.3819
76.199997, 93.264, -29.5205
77.500000, 93.150, -29.6102
78.800003, 93.044, -29.7157
80.000000, 92.942, -29.8159
81.199997, 92.840, -29.9027
82.500000, 92.728, -29.9775
83.800003, 92.622, -30.0101
85.000000, 92.526, -30.0569
86.199997, 92.428, -30.0739
87.500000, 92.326, -30.0589
88.500000, 92.249, -30.0513
90.000000, 92.132, -30.0331
91.199997, 92.038, -30.0048
92.500000, 91.938, -29.9592
93.800003, 91.839, -29.8834
95.000000, 91.754, -29.8007
96.199997, 91.669, -29.7576
97.500000, 91.568, -29.6846
98.800003, 91.466, -29.5499
100.000000, 91.376, -29.3973
101.500000, 91.265, -29.2023
103.000000, 91.156, -28.9788
104.400002, 91.057, -28.7717
106.000000, 90.943, -28.5175
107.500000, 90.838, -28.2376
109.000000, 90.745, -27.9615
110.599998, 90.647, -27.7365
112.000000, 90.557, -27.5382
113.800003, 90.440, -27.1970
115.000000, 90.367, -26.9075
117.199997, 90.241, -26.4067
118.000000, 90.193, -26.2192
120.599998, 90.049, -25.5912
122.000000, 89.977, -25.2999
124.099998, 89.873, -24.8279
125.000000, 89.832, -24.6214
126.500000, 89.763, -24.2709
128.000000, 89.694, -23.8935
131.500000, 89.536, -22.9949
132.000000, 89.512, -22.8665
134.000000, 89.418, -22.3265
136.000000, 89.331, -21.7446
138.000000, 89.255, -21.1548
140.000000, 89.188, -20.5988
143.000000, 89.088, -19.7524
145.000000, 89.024, -19.1617
147.500000, 88.951, -18.4177
150.000000, 88.882, -17.7083
152.500000, 88.812, -16.9944
155.000000, 88.742, -16.2911
157.500000, 88.677, -15.5900
160.000000, 88.623, -14.8826
162.500000, 88.581, -14.1800
165.000000, 88.539, -13.4814
167.500000, 88.500, -12.8058
170.000000, 88.467, -12.1795
172.500000, 88.439, -11.5388
175.000000, 88.414, -10.8373
177.500000, 88.388, -10.1489
180.000000, 88.365, -9.4991
182.500000, 88.348, -8.8898
185.000000, 88.332, -8.3046
187.500000, 88.318, -7.7214
190.000000, 88.307, -7.1232
192.500000, 88.299, -6.5093
195.000000, 88.289, -5.9037
197.500000, 88.279, -5.3383
200.000000, 88.278, -4.8114
203.000000, 88.287, -4.1903
206.000000, 88.295, -3.5658
209.000000, 88.304, -2.9762
212.000000, 88.320, -2.4625
214.000000, 88.331, -2.1481
218.000000, 88.347, -1.4920
220.000000, 88.352, -1.1318
224.000000, 88.362, -0.4805
227.000000, 88.371, -0.0554
230.000000, 88.382, 0.3988
233.000000, 88.397, 0.8719
236.000000, 88.414, 1.2766
240.000000, 88.432, 1.7639
243.000000, 88.440, 2.1428
247.000000, 88.455, 2.6100
250.000000, 88.470, 2.9740
254.000000, 88.489, 3.4819
258.000000, 88.506, 3.9290
262.000000, 88.524, 4.3512
265.000000, 88.536, 4.6667
269.000000, 88.550, 5.0648
272.000000, 88.559, 5.3503
276.000000, 88.572, 5.7017
280.000000, 88.586, 6.0598
285.000000, 88.604, 6.5117
290.000000, 88.622, 6.9428
295.000000, 88.638, 7.3501
300.000000, 88.652, 7.7205
304.000000, 88.664, 8.0267
307.000000, 88.672, 8.2535
311.000000, 88.681, 8.5499
315.000000, 88.690, 8.8453
320.000000, 88.701, 9.1879
325.000000, 88.709, 9.5125
330.000000, 88.718, 9.8416
335.000000, 88.728, 10.1738
340.000000, 88.735, 10.4780
345.000000, 88.741, 10.7872
350.000000, 88.746, 11.0960
355.000000, 88.751, 11.3920
360.000000, 88.755, 11.6855
365.000000, 88.756, 11.9898
370.000000, 88.755, 12.2742
375.000000, 88.756, 12.5577
382.000000, 88.756, 12.9500
387.000000, 88.754, 13.2264
395.000000, 88.747, 13.6687
400.000000, 88.743, 13.9591
406.000000, 88.736, 14.2877
412.000000, 88.729, 14.6058
418.000000, 88.721, 14.9161
425.000000, 88.712, 15.3013
431.000000, 88.703, 15.6395
437.000000, 88.692, 15.9774
444.000000, 88.678, 16.3715
450.000000, 88.665, 16.7108
455.000000, 88.656, 16.9988
462.000000, 88.643, 17.4145
468.000000, 88.632, 17.7681
475.000000, 88.619, 18.1678
482.000000, 88.606, 18.5771
487.000000, 88.596, 18.8730
494.000000, 88.580, 19.2853
500.000000, 88.568, 19.6388
508.000000, 88.550, 20.1025
515.000000, 88.534, 20.4981
522.000000, 88.516, 20.8976
530.000000, 88.497, 21.3629
538.000000, 88.477, 21.8385
545.000000, 88.460, 22.2578
552.000000, 88.441, 22.6718
560.000000, 88.417, 23.1327
570.000000, 88.385, 23.7294
580.000000, 88.354, 24.3550
590.000000, 88.323, 25.0057
600.000000, 88.290, 25.6586
608.000000, 88.265, 26.1777
615.000000, 88.243, 26.6403
622.000000, 88.223, 27.1145
630.000000, 88.199, 27.6486
640.000000, 88.168, 28.3068
650.000000, 88.137, 28.9937
660.000000, 88.105, 29.7044
670.000000, 88.074, 30.4173
680.000000, 88.043, 31.1325
690.000000, 88.013, 31.8773
700.000000, 87.984, 32.6314
710.000000, 87.956, 33.3906
720.000000, 87.929, 34.1612
730.000000, 87.902, 34.9390
740.000000, 87.876, 35.7301
750.000000, 87.850, 36.5337
762.000000, 87.824, 37.5052
775.000000, 87.798, 38.5657
788.000000, 87.773, 39.6349
800.000000, 87.751, 40.6313
812.000000, 87.730, 41.6571
825.000000, 87.709, 42.7975
838.000000, 87.692, 43.9646
850.000000, 87.682, 45.0480
862.000000, 87.676, 46.1414
875.000000, 87.675, 47.3317
885.000000, 87.678, 48.2449
900.000000, 87.687, 49.6169
912.000000, 87.700, 50.7157
925.000000, 87.719, 51.9066
938.000000, 87.744, 53.1033
950.000000, 87.771, 54.1852
962.000000, 87.802, 55.2473
975.000000, 87.843, 56.3901
988.000000, 87.887, 57.5096
1000.000000, 87.931, 58.5055
1015.000000, 87.989, 59.6997
1030.000000, 88.047, 60.8522
1044.000000, 88.099, 61.9182
1060.000000, 88.161, 63.1351
1075.000000, 88.224, 64.2388
1090.000000, 88.291, 65.3028
1106.000000, 88.362, 66.3977
1120.000000, 88.424, 67.3267
1138.000000, 88.505, 68.4761
1150.000000, 88.559, 69.2121
1172.000000, 88.654, 70.5126
1180.000000, 88.687, 70.9729
1206.000000, 88.792, 72.4389
1220.000000, 88.844, 73.1986
1241.000000, 88.920, 74.3120
1250.000000, 88.951, 74.7827
1265.000000, 88.999, 75.5552
1280.000000, 89.045, 76.3198
1315.000000, 89.140, 78.0934
1320.000000, 89.153, 78.3464
1340.000000, 89.201, 79.3652
1360.000000, 89.245, 80.3998
1380.000000, 89.287, 81.4389
1400.000000, 89.326, 82.4825
1430.000000, 89.383, 84.0858
1450.000000, 89.420, 85.1884
1475.000000, 89.466, 86.5862
1500.000000, 89.513, 87.9977
1525.000000, 89.561, 89.4211
1550.000000, 89.613, 90.8665
1575.000000, 89.666, 92.3361
1600.000000, 89.723, 93.8217
1625.000000, 89.783, 95.3165
1650.000000, 89.845, 96.8149
1675.000000, 89.913, 98.3248
1700.000000, 89.986, 99.8460
1725.000000, 90.063, 101.3730
1750.000000, 90.145, 102.8916
1775.000000, 90.233, 104.4001
1800.000000, 90.327, 105.9034
1825.000000, 90.427, 107.3930
1850.000000, 90.532, 108.8700
1875.000000, 90.640, 110.3324
1900.000000, 90.755, 111.7773
1925.000000, 90.875, 113.1980
1950.000000, 91.001, 114.5881
1975.000000, 91.131, 115.9515
2000.000000, 91.266, 117.2930
2030.000000, 91.436, 118.8679
2060.000000, 91.613, 120.3862
2090.000000, 91.798, 121.8398
2120.000000, 91.991, 123.2248
2140.000000, 92.123, 124.1068
2180.000000, 92.394, 125.7777
2200.000000, 92.534, 126.5570
2240.000000, 92.818, 127.9909
2270.000000, 93.035, 128.9539
2300.000000, 93.253, 129.8176
2330.000000, 93.474, 130.5803
2360.000000, 93.695, 131.2307
2400.000000, 93.987, 131.9199
2430.000000, 94.202, 132.2988
2470.000000, 94.478, 132.6157
2500.000000, 94.676, 132.7119
2540.000000, 94.924, 132.6497
2580.000000, 95.149, 132.3715
2620.000000, 95.341, 131.9087
2650.000000, 95.462, 131.4615
2690.000000, 95.590, 130.7573
2720.000000, 95.658, 130.1729
2760.000000, 95.710, 129.3654
2800.000000, 95.722, 128.5673
2850.000000, 95.681, 127.6349
2900.000000, 95.584, 126.8451
2950.000000, 95.436, 126.2674
3000.000000, 95.248, 125.9509
3040.000000, 95.077, 125.9059
3070.000000, 94.941, 125.9964
3110.000000, 94.752, 126.2805
3150.000000, 94.560, 126.7500
3200.000000, 94.320, 127.5732
3250.000000, 94.086, 128.6181
3300.000000, 93.862, 129.8629
3350.000000, 93.648, 131.3086
3400.000000, 93.453, 132.9488
3450.000000, 93.282, 134.7378
3500.000000, 93.139, 136.6239
3550.000000, 93.027, 138.5592
3600.000000, 92.944, 140.4974
3650.000000, 92.889, 142.3781
3700.000000, 92.856, 144.1592
3750.000000, 92.841, 145.8298
3820.000000, 92.843, 147.9597
3870.000000, 92.856, 149.3010
3950.000000, 92.889, 151.0842
4000.000000, 92.909, 151.9391
4060.000000, 92.919, 152.6778
4120.000000, 92.899, 153.1016
4180.000000, 92.830, 153.2458
4250.000000, 92.657, 153.2079
4310.000000, 92.415, 153.2307
4370.000000, 92.085, 153.5851
4440.000000, 91.626, 154.8037
4500.000000, 91.229, 156.7235
4550.000000, 90.942, 158.8776
4620.000000, 90.652, 162.3732
4680.000000, 90.515, 165.4444
4750.000000, 90.462, 168.7457
4820.000000, 90.485, 171.4802
4870.000000, 90.520, 173.0304
4940.000000, 90.561, 174.6741
5000.000000, 90.568, 175.6985
5080.000000, 90.517, 176.7442
5150.000000, 90.416, 177.5430
5220.000000, 90.269, 178.3747
5300.000000, 90.060, 179.4610
5380.000000, 89.821, -179.2575
5450.000000, 89.595, -177.9333
5520.000000, 89.366, -176.3864
5600.000000, 89.116, -174.3664
5700.000000, 88.836, -171.5318
5800.000000, 88.609, -168.4164
5900.000000, 88.451, -165.0728
6000.000000, 88.377, -161.6011
6080.000000, 88.385, -158.8278
6150.000000, 88.447, -156.4516
6220.000000, 88.564, -154.1655
6300.000000, 88.764, -151.7468
6400.000000, 89.112, -149.1304
6500.000000, 89.572, -147.1069
6600.000000, 90.137, -145.8769
6700.000000, 90.794, -145.7047
6800.000000, 91.504, -146.8520
6900.000000, 92.207, -149.5076
7000.000000, 92.821, -153.7101
7100.000000, 93.246, -159.2143
7200.000000, 93.412, -165.3497
7300.000000, 93.326, -171.3132
7400.000000, 93.041, -176.5948
7500.000000, 92.617, 179.1476
7620.000000, 92.029, 175.5828
7750.000000, 91.411, 173.4528
7880.000000, 90.897, 172.6799
8000.000000, 90.546, 172.7574
8120.000000, 90.319, 173.2390
8250.000000, 90.208, 173.8658
8380.000000, 90.213, 174.2588
8500.000000, 90.287, 174.1391
8620.000000, 90.381, 173.3890
8750.000000, 90.440, 171.8100
8850.000000, 90.412, 170.1378
9000.000000, 90.190, 167.2802
9120.000000, 89.837, 165.1392
9250.000000, 89.293, 163.4492
9380.000000, 88.626, 162.7584
9500.000000, 87.949, 163.1434
9620.000000, 87.258, 164.5103
9750.000000, 86.531, 167.0001
9880.000000, 85.857, 170.3925
10000.000000, 85.300, 174.1906
10150.000000, 84.710, 179.6651
10300.000000, 84.256, -174.2195
10440.000000, 83.973, -168.0923
10600.000000, 83.836, -160.8443
10750.000000, 83.906, -154.1951
10900.000000, 84.154, -148.1642
11060.000000, 84.553, -142.7555
11200.000000, 84.976, -138.8054
11380.000000, 85.631, -134.8628
11500.000000, 86.111, -133.2707
11720.000000, 86.915, -132.5346
11800.000000, 87.157, -132.7735
12060.000000, 87.755, -134.5695
12200.000000, 87.981, -135.9672
12410.000000, 88.208, -138.5608
12500.000000, 88.257, -139.8704
12650.000000, 88.257, -142.2173
12800.000000, 88.146, -144.5219
13150.000000, 87.604, -148.1246
13200.000000, 87.522, -148.3676
13400.000000, 87.257, -148.7673
13600.000000, 87.171, -148.6535
13800.000000, 87.329, -148.7460
14000.000000, 87.767, -149.9501
14300.000000, 88.903, -156.3244
14500.000000, 89.757, -165.4212
14750.000000, 90.331, 177.0682
15000.000000, 89.731, 155.9767
15250.000000, 87.941, 136.9067
15500.000000, 85.572, 122.7560
15750.000000, 83.257, 112.7478
16000.000000, 81.305, 104.7973
16250.000000, 79.784, 97.1758
16500.000000, 78.684, 88.7643
16750.000000, 77.987, 78.7545
17000.000000, 77.666, 66.4203
17250.000000, 77.718, 50.9932
17500.000000, 78.140, 31.3627
17750.000000, 78.776, 6.0502
18000.000000, 79.221, -25.8141
18250.000000, 79.074, -63.6237
18500.000000, 78.164, -106.0004
18750.000000, 76.500, -152.1503
19000.000000, 74.139, 158.0498
19250.000000, 71.125, 103.9385
19500.000000, 67.469, 44.7242
19750.000000, 63.201, -21.3881
20000.000000, 59.316, -91.7079
