* Measurement data measured by REW V5.31.3
* Source: USB-C to 3.5mm Headphone Jack Adapter, USB-C to 3.5mm Headphone Jack Adapter, 0, volume: 0.264
* Format: 256k Log Swept Sine, 1 sweep at -12.0 dBFS with no timing reference
* Dated: Apr 15, 2025 6:38:12 AM
* REW Settings:
*  C-weighting compensation: Off
*  Target level: 75.0 dB
* Note: ; 
* Measurement: SN420 Foam R
* Smoothing: 1/24 octave
* Frequency Step: 1/48 octave
* Start Frequency: 1.000 Hz
*
* Freq(Hz), SPL(dB), Phase(degrees)
1.000000, 78.448, 107.9915
1.015000, 78.580, 108.2020
1.030000, 78.713, 108.4172
1.044000, 78.837, 108.6224
1.060000, 78.981, 108.8620
1.075000, 79.116, 109.0918
1.090000, 79.253, 109.3265
1.106000, 79.401, 109.5837
1.120000, 79.530, 109.8161
1.138000, 79.694, 110.1251
1.150000, 79.803, 110.3366
1.172000, 80.002, 110.7332
1.180000, 80.073, 110.8797
1.206000, 80.304, 111.3614
1.220000, 80.428, 111.6228
1.241000, 80.612, 112.0152
1.250000, 80.691, 112.1828
1.265000, 80.822, 112.4609
1.280000, 80.953, 112.7362
1.315000, 81.256, 113.3635
1.320000, 81.299, 113.4509
1.340000, 81.472, 113.7937
1.360000, 81.645, 114.1245
1.380000, 81.817, 114.4414
1.400000, 81.991, 114.7430
1.430000, 82.251, 115.1633
1.450000, 82.425, 115.4211
1.475000, 82.645, 115.7233
1.500000, 82.865, 116.0202
1.525000, 83.085, 116.3168
1.550000, 83.306, 116.6095
1.575000, 83.528, 116.8937
1.600000, 83.749, 117.1656
1.625000, 83.970, 117.4213
1.650000, 84.191, 117.6576
1.675000, 84.411, 117.8717
1.700000, 84.630, 118.0609
1.725000, 84.848, 118.2229
1.750000, 85.065, 118.3557
1.775000, 85.280, 118.4577
1.800000, 85.494, 118.5277
1.825000, 85.705, 118.5669
1.850000, 85.915, 118.5849
1.875000, 86.125, 118.5942
1.900000, 86.334, 118.5970
1.925000, 86.542, 118.5910
1.950000, 86.749, 118.5732
1.975000, 86.955, 118.5412
2.000000, 87.160, 118.4926
2.030000, 87.403, 118.4095
2.060000, 87.644, 118.2964
2.090000, 87.882, 118.1504
2.120000, 88.116, 117.9690
2.140000, 88.270, 117.8273
2.180000, 88.573, 117.4927
2.200000, 88.721, 117.3015
2.240000, 89.014, 116.8878
2.270000, 89.230, 116.5586
2.300000, 89.443, 116.2141
2.330000, 89.653, 115.8540
2.360000, 89.859, 115.4776
2.400000, 90.129, 114.9489
2.430000, 90.327, 114.5313
2.470000, 90.586, 113.9447
2.500000, 90.775, 113.4812
2.540000, 91.021, 112.8301
2.580000, 91.260, 112.1404
2.620000, 91.491, 111.4164
2.650000, 91.660, 110.8547
2.690000, 91.880, 110.0852
2.720000, 92.041, 109.4951
2.760000, 92.248, 108.6938
2.800000, 92.449, 107.8786
2.850000, 92.691, 106.8427
2.900000, 92.923, 105.7892
2.950000, 93.144, 104.7116
3.000000, 93.354, 103.5957
3.040000, 93.514, 102.6776
3.070000, 93.629, 101.9786
3.110000, 93.778, 101.0383
3.150000, 93.920, 100.0938
3.200000, 94.088, 98.9151
3.250000, 94.247, 97.7455
3.300000, 94.397, 96.5844
3.350000, 94.537, 95.4108
3.400000, 94.666, 94.2124
3.450000, 94.786, 92.9992
3.500000, 94.896, 91.7851
3.550000, 94.998, 90.5833
3.600000, 95.091, 89.4057
3.650000, 95.177, 88.2584
3.700000, 95.254, 87.1288
3.750000, 95.322, 85.9960
3.820000, 95.403, 84.4069
3.870000, 95.452, 83.2840
3.950000, 95.516, 81.5411
4.000000, 95.549, 80.5015
4.060000, 95.580, 79.3047
4.120000, 95.601, 78.1393
4.180000, 95.612, 76.9984
4.250000, 95.616, 75.7096
4.310000, 95.614, 74.6549
4.370000, 95.608, 73.6592
4.440000, 95.596, 72.5768
4.500000, 95.580, 71.7067
4.550000, 95.563, 71.0174
4.620000, 95.536, 70.1045
4.680000, 95.512, 69.3701
4.750000, 95.488, 68.5726
4.820000, 95.465, 67.8481
4.870000, 95.450, 67.3772
4.940000, 95.429, 66.7723
5.000000, 95.414, 66.2915
5.080000, 95.400, 65.6848
5.150000, 95.397, 65.1801
5.220000, 95.402, 64.7141
5.300000, 95.415, 64.2256
5.380000, 95.436, 63.7552
5.450000, 95.461, 63.3331
5.520000, 95.492, 62.8908
5.600000, 95.537, 62.3741
5.700000, 95.604, 61.7123
5.800000, 95.678, 61.0059
5.900000, 95.756, 60.2292
6.000000, 95.837, 59.3867
6.080000, 95.905, 58.6760
6.150000, 95.963, 58.0319
6.220000, 96.018, 57.3674
6.300000, 96.079, 56.5789
6.400000, 96.151, 55.5524
6.500000, 96.219, 54.5058
6.600000, 96.280, 53.4634
6.700000, 96.334, 52.4219
6.800000, 96.381, 51.3816
6.900000, 96.425, 50.3650
7.000000, 96.465, 49.3892
7.100000, 96.501, 48.4499
7.200000, 96.535, 47.5452
7.300000, 96.569, 46.6814
7.400000, 96.605, 45.8640
7.500000, 96.642, 45.0900
7.620000, 96.689, 44.2048
7.750000, 96.747, 43.2883
7.880000, 96.811, 42.4162
8.000000, 96.875, 41.6342
8.120000, 96.942, 40.8589
8.250000, 97.020, 40.0275
8.380000, 97.099, 39.2021
8.500000, 97.171, 38.4394
8.620000, 97.243, 37.6776
8.750000, 97.318, 36.8645
8.850000, 97.372, 36.2516
9.000000, 97.450, 35.3535
9.120000, 97.509, 34.6642
9.250000, 97.569, 33.9558
9.380000, 97.627, 33.2851
9.500000, 97.680, 32.6983
9.620000, 97.734, 32.1439
9.750000, 97.792, 31.5738
9.880000, 97.853, 31.0200
10.000000, 97.911, 30.5169
10.150000, 97.986, 29.8896
10.300000, 98.060, 29.2390
10.440000, 98.129, 28.6031
10.600000, 98.202, 27.8381
10.750000, 98.262, 27.0762
10.900000, 98.310, 26.2813
11.060000, 98.345, 25.4160
11.200000, 98.361, 24.6522
11.380000, 98.359, 23.7044
11.500000, 98.344, 23.1084
11.720000, 98.292, 22.1301
11.800000, 98.266, 21.8243
12.060000, 98.167, 21.0303
12.200000, 98.110, 20.7408
12.410000, 98.028, 20.4725
12.500000, 97.998, 20.4077
12.650000, 97.955, 20.3563
12.800000, 97.923, 20.3441
13.150000, 97.897, 20.3173
13.200000, 97.898, 20.2992
13.400000, 97.910, 20.1667
13.600000, 97.927, 19.9227
13.800000, 97.945, 19.5610
14.000000, 97.955, 19.1031
14.300000, 97.952, 18.2918
14.500000, 97.937, 17.7152
14.750000, 97.908, 16.9943
15.000000, 97.873, 16.2927
15.250000, 97.838, 15.6070
15.500000, 97.806, 14.9171
15.750000, 97.775, 14.2070
16.000000, 97.742, 13.4730
16.250000, 97.704, 12.7372
16.500000, 97.659, 12.0343
16.750000, 97.611, 11.4043
17.000000, 97.567, 10.8705
17.250000, 97.535, 10.4260
17.500000, 97.522, 10.0342
17.750000, 97.530, 9.6336
18.000000, 97.554, 9.1679
18.250000, 97.586, 8.6006
18.500000, 97.613, 7.9329
18.750000, 97.627, 7.2024
19.000000, 97.624, 6.4661
19.250000, 97.603, 5.7889
19.500000, 97.572, 5.2140
19.750000, 97.540, 4.7567
20.000000, 97.512, 4.4008
20.299999, 97.493, 4.0527
20.600000, 97.487, 3.7255
20.900000, 97.486, 3.3798
21.200001, 97.483, 3.0202
21.400000, 97.479, 2.7884
21.799999, 97.472, 2.3735
22.000000, 97.473, 2.1861
22.400000, 97.489, 1.7869
22.700001, 97.512, 1.3977
23.000000, 97.532, 0.8949
23.299999, 97.540, 0.2969
23.600000, 97.527, -0.3361
24.000000, 97.482, -1.1057
24.299999, 97.440, -1.5663
24.700001, 97.392, -2.0372
25.000000, 97.371, -2.3495
25.400000, 97.358, -2.8195
25.799999, 97.345, -3.3935
26.200001, 97.317, -4.0104
26.500000, 97.284, -4.4330
26.900000, 97.235, -4.8793
27.200001, 97.204, -5.1251
27.600000, 97.181, -5.3923
28.000000, 97.177, -5.6832
28.500000, 97.185, -6.1909
29.000000, 97.183, -6.8687
29.500000, 97.152, -7.6015
30.000000, 97.093, -8.2230
30.400000, 97.040, -8.5677
30.700001, 97.007, -8.7435
31.100000, 96.980, -8.9290
31.500000, 96.973, -9.1520
32.000000, 96.976, -9.5909
32.500000, 96.966, -10.1946
33.000000, 96.929, -10.8305
33.500000, 96.872, -11.3672
34.000000, 96.814, -11.7710
34.500000, 96.766, -12.0966
35.000000, 96.728, -12.4201
35.500000, 96.694, -12.7859
36.000000, 96.657, -13.1911
36.500000, 96.612, -13.5974
37.000000, 96.566, -13.9705
37.500000, 96.527, -14.3299
38.200001, 96.483, -14.9431
38.700001, 96.441, -15.4855
39.500000, 96.336, -16.2540
40.000000, 96.272, -16.5321
40.599998, 96.228, -16.7713
41.200001, 96.213, -17.1234
41.799999, 96.193, -17.6104
42.500000, 96.153, -18.1700
43.099998, 96.115, -18.5896
43.700001, 96.075, -18.9798
44.400002, 96.022, -19.3634
45.000000, 95.980, -19.6354
45.500000, 95.951, -19.8883
46.200001, 95.899, -20.3204
46.799999, 95.837, -20.6700
47.500000, 95.763, -20.9777
48.200001, 95.701, -21.2718
48.700001, 95.659, -21.5182
49.400002, 95.598, -21.8906
50.000000, 95.545, -22.2124
50.799999, 95.471, -22.6276
51.500000, 95.404, -22.9329
52.200001, 95.347, -23.1878
53.000000, 95.290, -23.5129
53.799999, 95.226, -23.8761
54.500000, 95.164, -24.1526
55.200001, 95.107, -24.4081
56.000000, 95.043, -24.7534
57.000000, 94.946, -25.1863
58.000000, 94.851, -25.4991
59.000000, 94.768, -25.8113
60.000000, 94.687, -26.1113
60.799999, 94.626, -26.3586
61.500000, 94.565, -26.5956
62.200001, 94.496, -26.7824
63.000000, 94.420, -26.9079
64.000000, 94.338, -27.0714
65.000000, 94.255, -27.3172
66.000000, 94.166, -27.5937
67.000000, 94.076, -27.8685
68.000000, 93.986, -28.1541
69.000000, 93.894, -28.4046
70.000000, 93.809, -28.5965
71.000000, 93.729, -28.7866
72.000000, 93.645, -28.9468
73.000000, 93.563, -29.0530
74.000000, 93.484, -29.1591
75.000000, 93.402, -29.2820
76.199997, 93.299, -29.4291
77.500000, 93.183, -29.5784
78.800003, 93.070, -29.6828
80.000000, 92.971, -29.7798
81.199997, 92.872, -29.8753
82.500000, 92.761, -29.9504
83.800003, 92.649, -29.9633
85.000000, 92.549, -29.9528
86.199997, 92.452, -29.9339
87.500000, 92.350, -29.9510
88.500000, 92.270, -29.9646
90.000000, 92.157, -29.9560
91.199997, 92.066, -29.9612
92.500000, 91.962, -29.9243
93.800003, 91.857, -29.8072
95.000000, 91.766, -29.6444
96.199997, 91.683, -29.5077
97.500000, 91.591, -29.4172
98.800003, 91.496, -29.3144
100.000000, 91.409, -29.2421
101.500000, 91.296, -29.1223
103.000000, 91.188, -28.9386
104.400002, 91.098, -28.7371
106.000000, 90.999, -28.5042
107.500000, 90.908, -28.2576
109.000000, 90.813, -28.0294
110.599998, 90.703, -27.7617
112.000000, 90.606, -27.4930
113.800003, 90.496, -27.1360
115.000000, 90.428, -26.9338
117.199997, 90.308, -26.4766
118.000000, 90.269, -26.2678
120.599998, 90.143, -25.7597
122.000000, 90.054, -25.4690
124.099998, 89.922, -24.9366
125.000000, 89.871, -24.6915
126.500000, 89.795, -24.3076
128.000000, 89.724, -23.9537
131.500000, 89.569, -23.0992
132.000000, 89.547, -22.9821
134.000000, 89.460, -22.4955
136.000000, 89.378, -21.9703
138.000000, 89.300, -21.4198
140.000000, 89.225, -20.8382
143.000000, 89.116, -19.9490
145.000000, 89.050, -19.3879
147.500000, 88.972, -18.6750
150.000000, 88.903, -17.9535
152.500000, 88.835, -17.2338
155.000000, 88.769, -16.5277
157.500000, 88.708, -15.8447
160.000000, 88.654, -15.1941
162.500000, 88.604, -14.5265
165.000000, 88.558, -13.8340
167.500000, 88.516, -13.1406
170.000000, 88.474, -12.4464
172.500000, 88.443, -11.7313
175.000000, 88.423, -11.0983
177.500000, 88.404, -10.4871
180.000000, 88.386, -9.8502
182.500000, 88.371, -9.2119
185.000000, 88.355, -8.5860
187.500000, 88.340, -7.9781
190.000000, 88.327, -7.3949
192.500000, 88.320, -6.8444
195.000000, 88.318, -6.3133
197.500000, 88.315, -5.7566
200.000000, 88.313, -5.1813
203.000000, 88.310, -4.5612
206.000000, 88.313, -4.0014
209.000000, 88.325, -3.4286
212.000000, 88.340, -2.8476
214.000000, 88.348, -2.4852
218.000000, 88.355, -1.7801
220.000000, 88.359, -1.4347
224.000000, 88.371, -0.8392
227.000000, 88.380, -0.4224
230.000000, 88.388, 0.0191
233.000000, 88.396, 0.4560
236.000000, 88.409, 0.8838
240.000000, 88.429, 1.4142
243.000000, 88.435, 1.7736
247.000000, 88.447, 2.2597
250.000000, 88.460, 2.6266
254.000000, 88.477, 3.1127
258.000000, 88.493, 3.5678
262.000000, 88.508, 4.0009
265.000000, 88.517, 4.3183
269.000000, 88.530, 4.7259
272.000000, 88.542, 5.0231
276.000000, 88.561, 5.4015
280.000000, 88.577, 5.7634
285.000000, 88.592, 6.2090
290.000000, 88.608, 6.6645
295.000000, 88.623, 7.0878
300.000000, 88.639, 7.4840
304.000000, 88.651, 7.7784
307.000000, 88.658, 8.0018
311.000000, 88.668, 8.3097
315.000000, 88.680, 8.5917
320.000000, 88.693, 8.9561
325.000000, 88.703, 9.3018
330.000000, 88.714, 9.6197
335.000000, 88.723, 9.9668
340.000000, 88.730, 10.3002
345.000000, 88.736, 10.6075
350.000000, 88.742, 10.8858
355.000000, 88.747, 11.1605
360.000000, 88.749, 11.4581
365.000000, 88.751, 11.7628
370.000000, 88.755, 12.0535
375.000000, 88.757, 12.3302
382.000000, 88.755, 12.7055
387.000000, 88.754, 12.9778
395.000000, 88.751, 13.4194
400.000000, 88.748, 13.6839
406.000000, 88.743, 14.0071
412.000000, 88.737, 14.3421
418.000000, 88.729, 14.6816
425.000000, 88.720, 15.0718
431.000000, 88.714, 15.4010
437.000000, 88.707, 15.7302
444.000000, 88.696, 16.1039
450.000000, 88.684, 16.4256
455.000000, 88.674, 16.7088
462.000000, 88.663, 17.1171
468.000000, 88.655, 17.4671
475.000000, 88.644, 17.8619
482.000000, 88.632, 18.2292
487.000000, 88.622, 18.4919
494.000000, 88.608, 18.8621
500.000000, 88.594, 19.1906
508.000000, 88.576, 19.6356
515.000000, 88.560, 20.0230
522.000000, 88.542, 20.4010
530.000000, 88.518, 20.8287
538.000000, 88.491, 21.2749
545.000000, 88.466, 21.6713
552.000000, 88.443, 22.0874
560.000000, 88.416, 22.5717
570.000000, 88.381, 23.1843
580.000000, 88.350, 23.8177
590.000000, 88.318, 24.4668
600.000000, 88.284, 25.1194
608.000000, 88.257, 25.6537
615.000000, 88.236, 26.1213
622.000000, 88.215, 26.5837
630.000000, 88.189, 27.1271
640.000000, 88.156, 27.8362
650.000000, 88.125, 28.5586
660.000000, 88.097, 29.2700
670.000000, 88.069, 29.9916
680.000000, 88.041, 30.7256
690.000000, 88.013, 31.4699
700.000000, 87.985, 32.2252
710.000000, 87.959, 32.9873
720.000000, 87.936, 33.7521
730.000000, 87.915, 34.5250
740.000000, 87.895, 35.2965
750.000000, 87.875, 36.0801
762.000000, 87.849, 37.0238
775.000000, 87.822, 38.0489
788.000000, 87.799, 39.1025
800.000000, 87.779, 40.0943
812.000000, 87.760, 41.1072
825.000000, 87.742, 42.2149
838.000000, 87.726, 43.3222
850.000000, 87.715, 44.3693
862.000000, 87.709, 45.4305
875.000000, 87.707, 46.5963
885.000000, 87.708, 47.4932
900.000000, 87.713, 48.8415
912.000000, 87.722, 49.9271
925.000000, 87.739, 51.0926
938.000000, 87.761, 52.2555
950.000000, 87.787, 53.3200
962.000000, 87.816, 54.3694
975.000000, 87.848, 55.4936
988.000000, 87.887, 56.6046
1000.000000, 87.929, 57.5962
1015.000000, 87.986, 58.7953
1030.000000, 88.041, 59.9553
1044.000000, 88.091, 61.0148
1060.000000, 88.151, 62.2057
1075.000000, 88.211, 63.2993
1090.000000, 88.272, 64.3712
1106.000000, 88.338, 65.4695
1120.000000, 88.397, 66.3987
1138.000000, 88.474, 67.5500
1150.000000, 88.526, 68.2921
1172.000000, 88.618, 69.6178
1180.000000, 88.650, 70.0810
1206.000000, 88.751, 71.5448
1220.000000, 88.801, 72.3109
1241.000000, 88.875, 73.4352
1250.000000, 88.905, 73.9109
1265.000000, 88.953, 74.6985
1280.000000, 88.998, 75.4783
1315.000000, 89.090, 77.2811
1320.000000, 89.103, 77.5382
1340.000000, 89.150, 78.5729
1360.000000, 89.196, 79.6137
1380.000000, 89.239, 80.6625
1400.000000, 89.278, 81.7328
1430.000000, 89.335, 83.3483
1450.000000, 89.373, 84.4486
1475.000000, 89.420, 85.8469
1500.000000, 89.468, 87.2643
1525.000000, 89.517, 88.6906
1550.000000, 89.567, 90.1412
1575.000000, 89.621, 91.6081
1600.000000, 89.677, 93.0949
1625.000000, 89.737, 94.5926
1650.000000, 89.801, 96.0998
1675.000000, 89.870, 97.6202
1700.000000, 89.945, 99.1422
1725.000000, 90.024, 100.6555
1750.000000, 90.105, 102.1556
1775.000000, 90.192, 103.6628
1800.000000, 90.285, 105.1733
1825.000000, 90.382, 106.6720
1850.000000, 90.484, 108.1598
1875.000000, 90.593, 109.6258
1900.000000, 90.708, 111.0758
1925.000000, 90.830, 112.5078
1950.000000, 90.957, 113.9106
1975.000000, 91.088, 115.2866
2000.000000, 91.225, 116.6354
2030.000000, 91.397, 118.2091
2060.000000, 91.576, 119.7208
2090.000000, 91.760, 121.1722
2120.000000, 91.951, 122.5669
2140.000000, 92.082, 123.4579
2180.000000, 92.354, 125.1417
2200.000000, 92.494, 125.9340
2240.000000, 92.780, 127.3953
2270.000000, 92.999, 128.3762
2300.000000, 93.221, 129.2556
2330.000000, 93.445, 130.0324
2360.000000, 93.668, 130.7045
2400.000000, 93.963, 131.4191
2430.000000, 94.181, 131.8066
2470.000000, 94.463, 132.1335
2500.000000, 94.665, 132.2414
2540.000000, 94.920, 132.2004
2580.000000, 95.151, 131.9422
2620.000000, 95.353, 131.4883
2650.000000, 95.481, 131.0438
2690.000000, 95.620, 130.3437
2720.000000, 95.697, 129.7542
2760.000000, 95.762, 128.9201
2800.000000, 95.786, 128.0833
2850.000000, 95.759, 127.0883
2900.000000, 95.672, 126.2172
2950.000000, 95.533, 125.5483
3000.000000, 95.353, 125.1312
3040.000000, 95.187, 125.0040
3070.000000, 95.053, 125.0311
3110.000000, 94.865, 125.2291
3150.000000, 94.672, 125.6137
3200.000000, 94.430, 126.3313
3250.000000, 94.194, 127.2866
3300.000000, 93.968, 128.4483
3350.000000, 93.754, 129.7902
3400.000000, 93.555, 131.2970
3450.000000, 93.375, 132.9455
3500.000000, 93.218, 134.6974
3550.000000, 93.083, 136.5165
3600.000000, 92.972, 138.3678
3650.000000, 92.886, 140.2274
3700.000000, 92.824, 142.0641
3750.000000, 92.784, 143.8352
3820.000000, 92.762, 146.1389
3870.000000, 92.766, 147.6177
3950.000000, 92.794, 149.6211
4000.000000, 92.814, 150.6123
4060.000000, 92.828, 151.5069
4120.000000, 92.817, 152.0825
4180.000000, 92.761, 152.3746
4250.000000, 92.613, 152.4839
4310.000000, 92.398, 152.5872
4370.000000, 92.101, 152.9672
4440.000000, 91.677, 154.1377
4500.000000, 91.303, 155.9645
4550.000000, 91.029, 158.0269
4620.000000, 90.751, 161.3997
4680.000000, 90.618, 164.3760
4750.000000, 90.567, 167.6013
4820.000000, 90.593, 170.3306
4870.000000, 90.635, 171.9058
4940.000000, 90.695, 173.5852
5000.000000, 90.723, 174.6078
5080.000000, 90.708, 175.5697
5150.000000, 90.637, 176.2193
5220.000000, 90.513, 176.8394
5300.000000, 90.316, 177.6384
5380.000000, 90.079, 178.6528
5450.000000, 89.851, 179.7726
5520.000000, 89.617, -178.8732
5600.000000, 89.359, -177.0569
5700.000000, 89.067, -174.4437
5800.000000, 88.828, -171.5235
5900.000000, 88.656, -168.4035
6000.000000, 88.564, -165.1786
6080.000000, 88.554, -162.5819
6150.000000, 88.597, -160.3414
6220.000000, 88.690, -158.1803
6300.000000, 88.858, -155.8965
6400.000000, 89.162, -153.4068
6500.000000, 89.576, -151.4509
6600.000000, 90.094, -150.2226
6700.000000, 90.706, -149.9647
6800.000000, 91.377, -150.9241
6900.000000, 92.056, -153.3102
7000.000000, 92.668, -157.1945
7100.000000, 93.121, -162.3950
7200.000000, 93.344, -168.3767
7300.000000, 93.326, -174.4405
7400.000000, 93.098, 179.9398
7500.000000, 92.705, 175.1841
7620.000000, 92.113, 170.9796
7750.000000, 91.458, 168.2477
7880.000000, 90.886, 167.0109
8000.000000, 90.478, 166.7329
8120.000000, 90.193, 166.8733
8250.000000, 90.007, 167.1187
8380.000000, 89.919, 167.1333
8500.000000, 89.883, 166.7317
8620.000000, 89.844, 165.8418
8750.000000, 89.747, 164.3670
8850.000000, 89.599, 162.9819
9000.000000, 89.220, 160.8695
9120.000000, 88.778, 159.5157
9250.000000, 88.179, 158.7373
9380.000000, 87.492, 158.8843
9500.000000, 86.819, 159.9226
9620.000000, 86.143, 161.8131
9750.000000, 85.435, 164.7374
9880.000000, 84.776, 168.4466
10000.000000, 84.224, 172.4669
10150.000000, 83.624, 178.1807
10300.000000, 83.142, -175.4573
10440.000000, 82.821, -169.0760
10600.000000, 82.628, -161.4681
10750.000000, 82.640, -154.3575
10900.000000, 82.831, -147.7380
11060.000000, 83.180, -141.5712
11200.000000, 83.566, -136.9264
11380.000000, 84.178, -131.9504
11500.000000, 84.640, -129.5179
11720.000000, 85.471, -127.0491
11800.000000, 85.746, -126.6422
12060.000000, 86.537, -126.4991
12200.000000, 86.915, -127.0866
12410.000000, 87.416, -129.0119
12500.000000, 87.588, -130.2625
12650.000000, 87.784, -132.8379
12800.000000, 87.837, -135.7610
13150.000000, 87.443, -141.5551
13200.000000, 87.353, -142.1052
13400.000000, 86.988, -143.5145
13600.000000, 86.710, -143.9047
13800.000000, 86.608, -143.8040
14000.000000, 86.735, -143.8317
14300.000000, 87.421, -145.7277
14500.000000, 88.211, -149.6343
14750.000000, 89.401, -159.5941
15000.000000, 90.283, -176.4609
15250.000000, 90.156, 161.7753
15500.000000, 88.799, 140.2081
15750.000000, 86.669, 122.6696
16000.000000, 84.423, 109.2711
16250.000000, 82.462, 98.1501
16500.000000, 80.904, 87.4538
16750.000000, 79.740, 75.8373
17000.000000, 78.916, 62.3624
17250.000000, 78.358, 46.3422
17500.000000, 78.006, 27.2446
17750.000000, 77.792, 4.3833
18000.000000, 77.581, -22.7797
18250.000000, 77.216, -54.4875
18500.000000, 76.641, -91.0094
18750.000000, 75.795, -133.1204
19000.000000, 74.486, 178.5096
19250.000000, 72.496, 123.7416
19500.000000, 69.677, 62.5563
19750.000000, 66.062, -6.6037
20000.000000, 62.721, -79.5773
