* Measurement data measured by REW V5.31.3
* Source: USB-C to 3.5mm Headphone Jack Adapter, USB-C to 3.5mm Headphone Jack Adapter, 0, volume: 0.264
* Format: 256k Log Swept Sine, 1 sweep at -12.0 dBFS with no timing reference
* Dated: Apr 15, 2025 6:27:02 AM
* REW Settings:
*  C-weighting compensation: Off
*  Target level: 75.0 dB
* Note: ; 
* Measurement: SN434 Foam L
* Smoothing: 1/24 octave
* Frequency Step: 1/48 octave
* Start Frequency: 1.000 Hz
*
* Freq(Hz), SPL(dB), Phase(degrees)
1.000000, 81.385, -148.8089
1.015000, 81.535, -149.8049
1.030000, 81.685, -150.7937
1.044000, 81.824, -151.7115
1.060000, 81.982, -152.7563
1.075000, 82.130, -153.7336
1.090000, 82.277, -154.7108
1.106000, 82.433, -155.7571
1.120000, 82.568, -156.6797
1.138000, 82.740, -157.8760
1.150000, 82.853, -158.6785
1.172000, 83.056, -160.1565
1.180000, 83.129, -160.6951
1.206000, 83.364, -162.4460
1.220000, 83.488, -163.3869
1.241000, 83.671, -164.7926
1.250000, 83.748, -165.3922
1.265000, 83.877, -166.3870
1.280000, 84.004, -167.3751
1.315000, 84.294, -169.6494
1.320000, 84.335, -169.9704
1.340000, 84.498, -171.2432
1.360000, 84.658, -172.4976
1.380000, 84.817, -173.7326
1.400000, 84.974, -174.9474
1.430000, 85.207, -176.7307
1.450000, 85.360, -177.8938
1.475000, 85.550, -179.3242
1.500000, 85.736, 179.2578
1.525000, 85.919, 177.8471
1.550000, 86.099, 176.4454
1.575000, 86.276, 175.0544
1.600000, 86.449, 173.6755
1.625000, 86.619, 172.3098
1.650000, 86.787, 170.9576
1.675000, 86.951, 169.6192
1.700000, 87.113, 168.2946
1.725000, 87.272, 166.9831
1.750000, 87.429, 165.6843
1.775000, 87.584, 164.3970
1.800000, 87.736, 163.1199
1.825000, 87.887, 161.8503
1.850000, 88.035, 160.5799
1.875000, 88.180, 159.3012
1.900000, 88.322, 158.0148
1.925000, 88.462, 156.7246
1.950000, 88.599, 155.4347
1.975000, 88.734, 154.1489
2.000000, 88.866, 152.8705
2.030000, 89.022, 151.3501
2.060000, 89.174, 149.8489
2.090000, 89.323, 148.3703
2.120000, 89.469, 146.9173
2.140000, 89.565, 145.9639
2.180000, 89.753, 144.0941
2.200000, 89.845, 143.1743
2.240000, 90.024, 141.3409
2.270000, 90.155, 139.9622
2.300000, 90.282, 138.5834
2.330000, 90.406, 137.2093
2.360000, 90.527, 135.8442
2.400000, 90.684, 134.0455
2.430000, 90.798, 132.7175
2.470000, 90.947, 130.9811
2.500000, 91.055, 129.7082
2.540000, 91.195, 128.0534
2.580000, 91.331, 126.4389
2.620000, 91.462, 124.8380
2.650000, 91.557, 123.6401
2.690000, 91.679, 122.0502
2.720000, 91.768, 120.8674
2.760000, 91.882, 119.3091
2.800000, 91.992, 117.7787
2.850000, 92.125, 115.9156
2.900000, 92.252, 114.1182
2.950000, 92.374, 112.3827
3.000000, 92.490, 110.6779
3.040000, 92.577, 109.3279
3.070000, 92.641, 108.3256
3.110000, 92.722, 107.0066
3.150000, 92.801, 105.7124
3.200000, 92.895, 104.1375
3.250000, 92.986, 102.6194
3.300000, 93.075, 101.1632
3.350000, 93.159, 99.7562
3.400000, 93.239, 98.3839
3.450000, 93.315, 97.0444
3.500000, 93.387, 95.7396
3.550000, 93.458, 94.4723
3.600000, 93.527, 93.2465
3.650000, 93.596, 92.0655
3.700000, 93.663, 90.9286
3.750000, 93.729, 89.8304
3.820000, 93.818, 88.3497
3.870000, 93.880, 87.3290
3.950000, 93.979, 85.7551
4.000000, 94.041, 84.8071
4.060000, 94.116, 83.7073
4.120000, 94.192, 82.6510
4.180000, 94.268, 81.6335
4.250000, 94.356, 80.4853
4.310000, 94.433, 79.5259
4.370000, 94.509, 78.5832
4.440000, 94.600, 77.5038
4.500000, 94.678, 76.6007
4.550000, 94.744, 75.8629
4.620000, 94.836, 74.8475
4.680000, 94.914, 73.9887
4.750000, 95.004, 72.9942
4.820000, 95.092, 72.0050
4.870000, 95.154, 71.3027
4.940000, 95.241, 70.3276
5.000000, 95.313, 69.5009
5.080000, 95.405, 68.4127
5.150000, 95.482, 67.4716
5.220000, 95.555, 66.5351
5.300000, 95.634, 65.4727
5.380000, 95.708, 64.4294
5.450000, 95.769, 63.5405
5.520000, 95.825, 62.6754
5.600000, 95.884, 61.7076
5.700000, 95.950, 60.5305
5.800000, 96.009, 59.4078
5.900000, 96.063, 58.3541
6.000000, 96.110, 57.3622
6.080000, 96.145, 56.6098
6.150000, 96.174, 55.9826
6.220000, 96.203, 55.3867
6.300000, 96.236, 54.7464
6.400000, 96.276, 54.0021
6.500000, 96.318, 53.3051
6.600000, 96.363, 52.6432
6.700000, 96.413, 52.0194
6.800000, 96.465, 51.4285
6.900000, 96.521, 50.8483
7.000000, 96.581, 50.2640
7.100000, 96.644, 49.6792
7.200000, 96.709, 49.0895
7.300000, 96.774, 48.4818
7.400000, 96.838, 47.8485
7.500000, 96.901, 47.1931
7.620000, 96.973, 46.3846
7.750000, 97.044, 45.4821
7.880000, 97.105, 44.5505
8.000000, 97.153, 43.6862
8.120000, 97.192, 42.8331
8.250000, 97.222, 41.9196
8.380000, 97.243, 41.0383
8.500000, 97.256, 40.2710
8.620000, 97.261, 39.5461
8.750000, 97.263, 38.8134
8.850000, 97.263, 38.2932
9.000000, 97.262, 37.5804
9.120000, 97.263, 37.0561
9.250000, 97.268, 36.5285
9.380000, 97.277, 36.0371
9.500000, 97.290, 35.5969
9.620000, 97.307, 35.1593
9.750000, 97.331, 34.6849
9.880000, 97.358, 34.1959
10.000000, 97.385, 33.7233
10.150000, 97.420, 33.1057
10.300000, 97.453, 32.4571
10.440000, 97.482, 31.8236
10.600000, 97.511, 31.0799
10.750000, 97.532, 30.3729
10.900000, 97.549, 29.6639
11.060000, 97.561, 28.9215
11.200000, 97.568, 28.2875
11.380000, 97.574, 27.5010
11.500000, 97.577, 26.9974
11.720000, 97.581, 26.1129
11.800000, 97.583, 25.8026
12.060000, 97.591, 24.8295
12.200000, 97.596, 24.3220
12.410000, 97.606, 23.5788
12.500000, 97.610, 23.2662
12.650000, 97.618, 22.7529
12.800000, 97.626, 22.2510
13.150000, 97.645, 21.1316
13.200000, 97.648, 20.9780
13.400000, 97.662, 20.3785
13.600000, 97.679, 19.7963
13.800000, 97.701, 19.2226
14.000000, 97.725, 18.6426
14.300000, 97.765, 17.7385
14.500000, 97.789, 17.1029
14.750000, 97.811, 16.2800
15.000000, 97.819, 15.4504
15.250000, 97.811, 14.6581
15.500000, 97.789, 13.9515
15.750000, 97.757, 13.3683
16.000000, 97.723, 12.9276
16.250000, 97.699, 12.6151
16.500000, 97.689, 12.3914
16.750000, 97.699, 12.1970
17.000000, 97.725, 11.9697
17.250000, 97.762, 11.6641
17.500000, 97.802, 11.2563
17.750000, 97.837, 10.7520
18.000000, 97.861, 10.1767
18.250000, 97.870, 9.5671
18.500000, 97.866, 8.9619
18.750000, 97.852, 8.3896
19.000000, 97.830, 7.8665
19.250000, 97.807, 7.3931
19.500000, 97.784, 6.9578
19.750000, 97.765, 6.5432
20.000000, 97.748, 6.1319
20.299999, 97.729, 5.6279
20.600000, 97.709, 5.1127
20.900000, 97.685, 4.6021
21.200001, 97.658, 4.1196
21.400000, 97.640, 3.8225
21.799999, 97.611, 3.2848
22.000000, 97.602, 3.0311
22.400000, 97.600, 2.4987
22.700001, 97.606, 2.0356
23.000000, 97.611, 1.5016
23.299999, 97.609, 0.9144
23.600000, 97.594, 0.3162
24.000000, 97.557, -0.4156
24.299999, 97.525, -0.8792
24.700001, 97.488, -1.3980
25.000000, 97.469, -1.7586
25.400000, 97.448, -2.2632
25.799999, 97.422, -2.7946
26.200001, 97.382, -3.2756
26.500000, 97.350, -3.5557
26.900000, 97.320, -3.8301
27.200001, 97.314, -4.0272
27.600000, 97.325, -4.4064
28.000000, 97.333, -4.9879
28.500000, 97.300, -5.8713
29.000000, 97.216, -6.5910
29.500000, 97.133, -6.9508
30.000000, 97.102, -7.1615
30.400000, 97.113, -7.4768
30.700001, 97.122, -7.8611
31.100000, 97.116, -8.5120
31.500000, 97.082, -9.1790
32.000000, 97.018, -9.8483
32.500000, 96.964, -10.3312
33.000000, 96.931, -10.7832
33.500000, 96.904, -11.2936
34.000000, 96.866, -11.7963
34.500000, 96.825, -12.1996
35.000000, 96.796, -12.5193
35.500000, 96.782, -12.8486
36.000000, 96.772, -13.2461
36.500000, 96.755, -13.6959
37.000000, 96.729, -14.1614
37.500000, 96.694, -14.6276
38.200001, 96.628, -15.2592
38.700001, 96.570, -15.6576
39.500000, 96.472, -16.1771
40.000000, 96.414, -16.4568
40.599998, 96.348, -16.7566
41.200001, 96.292, -17.0179
41.799999, 96.254, -17.3160
42.500000, 96.216, -17.8212
43.099998, 96.168, -18.3174
43.700001, 96.110, -18.7371
44.400002, 96.056, -19.1414
45.000000, 96.019, -19.5298
45.500000, 95.983, -19.8849
46.200001, 95.920, -20.3237
46.799999, 95.869, -20.6233
47.500000, 95.818, -20.9767
48.200001, 95.762, -21.3693
48.700001, 95.717, -21.6418
49.400002, 95.651, -21.9978
50.000000, 95.593, -22.3016
50.799999, 95.509, -22.6873
51.500000, 95.433, -22.9397
52.200001, 95.373, -23.1362
53.000000, 95.324, -23.4553
53.799999, 95.266, -23.9189
54.500000, 95.196, -24.2976
55.200001, 95.123, -24.5448
56.000000, 95.057, -24.7438
57.000000, 94.990, -25.1011
58.000000, 94.900, -25.5096
59.000000, 94.805, -25.7756
60.000000, 94.722, -26.0518
60.799999, 94.650, -26.2949
61.500000, 94.588, -26.4861
62.200001, 94.528, -26.6877
63.000000, 94.458, -26.9360
64.000000, 94.366, -27.2142
65.000000, 94.278, -27.4814
66.000000, 94.186, -27.7384
67.000000, 94.092, -27.9397
68.000000, 94.004, -28.1030
69.000000, 93.922, -28.2925
70.000000, 93.834, -28.5145
71.000000, 93.741, -28.6980
72.000000, 93.652, -28.8500
73.000000, 93.567, -29.0076
74.000000, 93.482, -29.1836
75.000000, 93.390, -29.3462
76.199997, 93.284, -29.4353
77.500000, 93.183, -29.5711
78.800003, 93.070, -29.7157
80.000000, 92.965, -29.7686
81.199997, 92.864, -29.7812
82.500000, 92.762, -29.8047
83.800003, 92.659, -29.8476
85.000000, 92.562, -29.8725
86.199997, 92.465, -29.8900
87.500000, 92.360, -29.8566
88.500000, 92.286, -29.8027
90.000000, 92.180, -29.7727
91.199997, 92.088, -29.7709
92.500000, 91.982, -29.7117
93.800003, 91.877, -29.6119
95.000000, 91.781, -29.4883
96.199997, 91.693, -29.3669
97.500000, 91.596, -29.3004
98.800003, 91.496, -29.2055
100.000000, 91.408, -29.1146
101.500000, 91.297, -28.9495
103.000000, 91.198, -28.7434
104.400002, 91.103, -28.5641
106.000000, 90.993, -28.2894
107.500000, 90.894, -28.0277
109.000000, 90.795, -27.7638
110.599998, 90.698, -27.4747
112.000000, 90.618, -27.2611
113.800003, 90.513, -26.9866
115.000000, 90.443, -26.7742
117.199997, 90.315, -26.3561
118.000000, 90.268, -26.1859
120.599998, 90.113, -25.5601
122.000000, 90.040, -25.1606
124.099998, 89.937, -24.6217
125.000000, 89.893, -24.3908
126.500000, 89.823, -24.0068
128.000000, 89.755, -23.6288
131.500000, 89.599, -22.7148
132.000000, 89.577, -22.5823
134.000000, 89.492, -22.0594
136.000000, 89.411, -21.5299
138.000000, 89.338, -21.0144
140.000000, 89.265, -20.4844
143.000000, 89.162, -19.6143
145.000000, 89.097, -19.0593
147.500000, 89.024, -18.3832
150.000000, 88.960, -17.6949
152.500000, 88.896, -16.9646
155.000000, 88.835, -16.2614
157.500000, 88.777, -15.5928
160.000000, 88.723, -14.9354
162.500000, 88.673, -14.2348
165.000000, 88.633, -13.5524
167.500000, 88.600, -12.9125
170.000000, 88.570, -12.2706
172.500000, 88.536, -11.6213
175.000000, 88.501, -10.9628
177.500000, 88.471, -10.3234
180.000000, 88.448, -9.7154
182.500000, 88.426, -9.1201
185.000000, 88.409, -8.5214
187.500000, 88.396, -7.9334
190.000000, 88.384, -7.3380
192.500000, 88.371, -6.7557
195.000000, 88.359, -6.2000
197.500000, 88.353, -5.6520
200.000000, 88.351, -5.1027
203.000000, 88.347, -4.4684
206.000000, 88.345, -3.8281
209.000000, 88.358, -3.2223
212.000000, 88.374, -2.6450
214.000000, 88.383, -2.2787
218.000000, 88.401, -1.5881
220.000000, 88.412, -1.2643
224.000000, 88.435, -0.6785
227.000000, 88.455, -0.2702
230.000000, 88.471, 0.1125
233.000000, 88.481, 0.4999
236.000000, 88.487, 0.8860
240.000000, 88.494, 1.4108
243.000000, 88.499, 1.7683
247.000000, 88.506, 2.2177
250.000000, 88.515, 2.5465
254.000000, 88.526, 2.9738
258.000000, 88.539, 3.4327
262.000000, 88.552, 3.8942
265.000000, 88.562, 4.2137
269.000000, 88.573, 4.5914
272.000000, 88.580, 4.8768
276.000000, 88.591, 5.2601
280.000000, 88.601, 5.6217
285.000000, 88.614, 6.1030
290.000000, 88.625, 6.5164
295.000000, 88.638, 6.9235
300.000000, 88.652, 7.3319
304.000000, 88.660, 7.6501
307.000000, 88.665, 7.8806
311.000000, 88.671, 8.1729
315.000000, 88.678, 8.4637
320.000000, 88.687, 8.8184
325.000000, 88.696, 9.1820
330.000000, 88.702, 9.5363
335.000000, 88.707, 9.8818
340.000000, 88.713, 10.2080
345.000000, 88.717, 10.5316
350.000000, 88.720, 10.8482
355.000000, 88.726, 11.1630
360.000000, 88.730, 11.4700
365.000000, 88.730, 11.7739
370.000000, 88.730, 12.0709
375.000000, 88.729, 12.3589
382.000000, 88.726, 12.7484
387.000000, 88.722, 13.0364
395.000000, 88.716, 13.5037
400.000000, 88.712, 13.7966
406.000000, 88.710, 14.1371
412.000000, 88.705, 14.4634
418.000000, 88.695, 14.8003
425.000000, 88.684, 15.2065
431.000000, 88.674, 15.5539
437.000000, 88.663, 15.8887
444.000000, 88.650, 16.2814
450.000000, 88.638, 16.6135
455.000000, 88.627, 16.8931
462.000000, 88.611, 17.2988
468.000000, 88.598, 17.6489
475.000000, 88.584, 18.0634
482.000000, 88.567, 18.4763
487.000000, 88.553, 18.7762
494.000000, 88.536, 19.2009
500.000000, 88.521, 19.5614
508.000000, 88.501, 20.0465
515.000000, 88.483, 20.4751
522.000000, 88.464, 20.9059
530.000000, 88.444, 21.4001
538.000000, 88.424, 21.8897
545.000000, 88.406, 22.3235
552.000000, 88.387, 22.7628
560.000000, 88.366, 23.2700
570.000000, 88.337, 23.8971
580.000000, 88.308, 24.5314
590.000000, 88.278, 25.1760
600.000000, 88.247, 25.8300
608.000000, 88.220, 26.3711
615.000000, 88.197, 26.8578
622.000000, 88.176, 27.3589
630.000000, 88.153, 27.9306
640.000000, 88.126, 28.6224
650.000000, 88.099, 29.3193
660.000000, 88.070, 30.0341
670.000000, 88.038, 30.7632
680.000000, 88.008, 31.4987
690.000000, 87.980, 32.2492
700.000000, 87.954, 33.0200
710.000000, 87.927, 33.7940
720.000000, 87.900, 34.5732
730.000000, 87.877, 35.3676
740.000000, 87.854, 36.1703
750.000000, 87.831, 36.9747
762.000000, 87.808, 37.9522
775.000000, 87.784, 39.0443
788.000000, 87.762, 40.1439
800.000000, 87.746, 41.1763
812.000000, 87.732, 42.2141
825.000000, 87.719, 43.3489
838.000000, 87.711, 44.5003
850.000000, 87.707, 45.5782
862.000000, 87.705, 46.6445
875.000000, 87.707, 47.8063
885.000000, 87.711, 48.7101
900.000000, 87.724, 50.0610
912.000000, 87.740, 51.1341
925.000000, 87.759, 52.2994
938.000000, 87.783, 53.4670
950.000000, 87.810, 54.5360
962.000000, 87.840, 55.5887
975.000000, 87.876, 56.7135
988.000000, 87.917, 57.8214
1000.000000, 87.958, 58.8214
1015.000000, 88.015, 60.0462
1030.000000, 88.074, 61.2368
1044.000000, 88.131, 62.3132
1060.000000, 88.200, 63.5204
1075.000000, 88.267, 64.6100
1090.000000, 88.336, 65.6631
1106.000000, 88.410, 66.7371
1120.000000, 88.473, 67.6456
1138.000000, 88.554, 68.7793
1150.000000, 88.607, 69.5100
1172.000000, 88.701, 70.8084
1180.000000, 88.734, 71.2645
1206.000000, 88.836, 72.7043
1220.000000, 88.887, 73.4597
1241.000000, 88.959, 74.5749
1250.000000, 88.988, 75.0494
1265.000000, 89.035, 75.8367
1280.000000, 89.081, 76.6178
1315.000000, 89.177, 78.4166
1320.000000, 89.190, 78.6722
1340.000000, 89.238, 79.7024
1360.000000, 89.284, 80.7537
1380.000000, 89.326, 81.8084
1400.000000, 89.366, 82.8831
1430.000000, 89.425, 84.5107
1450.000000, 89.464, 85.6120
1475.000000, 89.513, 87.0102
1500.000000, 89.563, 88.4317
1525.000000, 89.614, 89.8690
1550.000000, 89.667, 91.3277
1575.000000, 89.721, 92.8066
1600.000000, 89.780, 94.3029
1625.000000, 89.843, 95.8110
1650.000000, 89.909, 97.3177
1675.000000, 89.980, 98.8319
1700.000000, 90.055, 100.3552
1725.000000, 90.135, 101.8890
1750.000000, 90.221, 103.4185
1775.000000, 90.311, 104.9435
1800.000000, 90.406, 106.4646
1825.000000, 90.508, 107.9702
1850.000000, 90.617, 109.4611
1875.000000, 90.729, 110.9359
1900.000000, 90.848, 112.3903
1925.000000, 90.973, 113.8240
1950.000000, 91.103, 115.2356
1975.000000, 91.238, 116.6160
2000.000000, 91.378, 117.9613
2030.000000, 91.555, 119.5342
2060.000000, 91.739, 121.0594
2090.000000, 91.930, 122.5244
2120.000000, 92.129, 123.9278
2140.000000, 92.265, 124.8239
2180.000000, 92.546, 126.5130
2200.000000, 92.691, 127.3056
2240.000000, 92.986, 128.7699
2270.000000, 93.214, 129.7510
2300.000000, 93.445, 130.6274
2330.000000, 93.678, 131.3931
2360.000000, 93.911, 132.0396
2400.000000, 94.220, 132.7183
2430.000000, 94.449, 133.0842
2470.000000, 94.746, 133.3658
2500.000000, 94.961, 133.4233
2540.000000, 95.230, 133.2944
2580.000000, 95.475, 132.9380
2620.000000, 95.688, 132.3773
2650.000000, 95.824, 131.8456
2690.000000, 95.971, 131.0150
2720.000000, 96.054, 130.3199
2760.000000, 96.124, 129.3380
2800.000000, 96.148, 128.3356
2850.000000, 96.114, 127.1457
2900.000000, 96.016, 126.1243
2950.000000, 95.867, 125.3219
3000.000000, 95.674, 124.7759
3040.000000, 95.495, 124.5652
3070.000000, 95.351, 124.5534
3110.000000, 95.155, 124.7233
3150.000000, 94.957, 125.0728
3200.000000, 94.711, 125.7096
3250.000000, 94.465, 126.5712
3300.000000, 94.223, 127.6663
3350.000000, 93.995, 128.9750
3400.000000, 93.785, 130.4643
3450.000000, 93.599, 132.1003
3500.000000, 93.438, 133.8405
3550.000000, 93.303, 135.6337
3600.000000, 93.192, 137.4236
3650.000000, 93.102, 139.1844
3700.000000, 93.030, 140.9170
3750.000000, 92.977, 142.6038
3820.000000, 92.933, 144.8266
3870.000000, 92.919, 146.2734
3950.000000, 92.914, 148.3048
4000.000000, 92.918, 149.3831
4060.000000, 92.924, 150.4393
4120.000000, 92.920, 151.2066
4180.000000, 92.892, 151.6730
4250.000000, 92.801, 151.8797
4310.000000, 92.651, 151.8724
4370.000000, 92.420, 151.8965
4440.000000, 92.052, 152.3340
4500.000000, 91.684, 153.3347
4550.000000, 91.375, 154.6770
4620.000000, 90.991, 157.2380
4680.000000, 90.741, 159.8589
4750.000000, 90.559, 163.0111
4820.000000, 90.473, 165.8710
4870.000000, 90.446, 167.6206
4940.000000, 90.425, 169.6389
5000.000000, 90.400, 171.0199
5080.000000, 90.333, 172.4921
5150.000000, 90.233, 173.5918
5220.000000, 90.096, 174.6633
5300.000000, 89.906, 175.9679
5380.000000, 89.695, 177.4097
5450.000000, 89.501, 178.8074
5520.000000, 89.307, -179.6299
5600.000000, 89.101, -177.6543
5700.000000, 88.879, -175.0065
5800.000000, 88.704, -172.1966
5900.000000, 88.592, -169.2582
6000.000000, 88.551, -166.2934
6080.000000, 88.577, -163.9593
6150.000000, 88.646, -161.9748
6220.000000, 88.760, -160.0767
6300.000000, 88.951, -158.0717
6400.000000, 89.286, -155.9314
6500.000000, 89.725, -154.3435
6600.000000, 90.264, -153.5025
6700.000000, 90.888, -153.6295
6800.000000, 91.566, -154.9578
6900.000000, 92.248, -157.6640
7000.000000, 92.863, -161.8008
7100.000000, 93.330, -167.2457
7200.000000, 93.567, -173.6191
7300.000000, 93.523, 179.8279
7400.000000, 93.225, 173.9715
7500.000000, 92.767, 169.3329
7620.000000, 92.137, 165.4494
7750.000000, 91.469, 163.0818
7880.000000, 90.905, 162.2046
8000.000000, 90.518, 162.2079
8120.000000, 90.252, 162.5325
8250.000000, 90.076, 162.9388
8380.000000, 89.993, 163.1119
8500.000000, 89.952, 162.8469
8620.000000, 89.898, 162.1448
8750.000000, 89.781, 160.9826
8850.000000, 89.626, 159.9030
9000.000000, 89.255, 158.2546
9120.000000, 88.827, 157.2283
9250.000000, 88.249, 156.7587
9380.000000, 87.587, 157.1671
9500.000000, 86.938, 158.3934
9620.000000, 86.284, 160.4266
9750.000000, 85.597, 163.4564
9880.000000, 84.951, 167.2276
10000.000000, 84.404, 171.2857
10150.000000, 83.799, 177.0388
10300.000000, 83.297, -176.5427
10440.000000, 82.941, -170.0338
10600.000000, 82.692, -162.1301
10750.000000, 82.643, -154.4988
10900.000000, 82.784, -146.9905
11060.000000, 83.145, -139.4633
11200.000000, 83.640, -133.6594
11380.000000, 84.448, -128.0417
11500.000000, 85.012, -125.5059
11720.000000, 86.017, -122.7710
11800.000000, 86.368, -122.3312
12060.000000, 87.408, -122.9296
12200.000000, 87.859, -124.4251
12410.000000, 88.329, -127.8282
12500.000000, 88.444, -129.5649
12650.000000, 88.515, -132.5961
12800.000000, 88.441, -135.5432
13150.000000, 87.853, -140.7242
13200.000000, 87.742, -141.1892
13400.000000, 87.298, -142.3114
13600.000000, 86.922, -142.4131
13800.000000, 86.689, -141.8643
14000.000000, 86.654, -141.1611
14300.000000, 87.056, -141.0053
14500.000000, 87.674, -142.4548
14750.000000, 88.831, -147.8337
15000.000000, 90.159, -159.3760
15250.000000, 91.033, -177.8963
15500.000000, 90.810, 159.4541
15750.000000, 89.433, 137.7884
16000.000000, 87.450, 120.0425
16250.000000, 85.456, 105.7500
16500.000000, 83.753, 93.0536
16750.000000, 82.418, 80.2860
17000.000000, 81.440, 66.2400
17250.000000, 80.774, 49.9222
17500.000000, 80.350, 30.4719
17750.000000, 80.076, 7.0793
18000.000000, 79.798, -20.9635
18250.000000, 79.296, -53.9168
18500.000000, 78.388, -91.5132
18750.000000, 77.040, -133.5656
19000.000000, 75.295, 179.3469
19250.000000, 73.117, 126.2521
19500.000000, 70.355, 66.2784
19750.000000, 66.944, -2.3914
20000.000000, 63.855, -75.2686
