* Measurement data measured by REW V5.31.3
* Source: Analog 1/2 (E2x2), LINE_IN (Master Volume), L, volume: 1.000. Timing signal peak level -38.0 dBFS, measurement signal peak level -31.9 dBFS
* Format: 2M Log Swept Sine, 1 sweep at -16.4 dBFS using an acoustic timing reference
* Dated: Feb 18, 2025 3:35:25 PM
* REW Settings:
*  C-weighting compensation: Off
*  Target level: 85.0 dB
* Note: ; E2x2 Delay 0.0105 ms (3.6 mm, 0.14 in) using estimated IR delay relative to Acoustic reference played from LINE_OUT R with no timing offset Clock adjustment: 21.5 ppm
* Measurement: R4
* Smoothing: 1/24 octave
* Frequency Step: 1/48 octave
* Start Frequency: 1.000 Hz
*
* Freq(Hz), SPL(dB), Phase(degrees)
1.000000, 51.445, 8.0064
1.015000, 51.217, 8.7914
1.030000, 51.000, 9.5721
1.044000, 50.807, 10.2969
1.060000, 50.600, 11.1206
1.075000, 50.421, 11.8883
1.090000, 50.257, 12.6515
1.106000, 50.099, 13.4594
1.120000, 49.971, 14.1594
1.138000, 49.818, 15.0495
1.150000, 49.722, 15.6370
1.172000, 49.560, 16.5905
1.180000, 49.505, 16.8183
1.206000, 49.340, 17.5578
1.220000, 49.259, 17.9505
1.241000, 49.148, 18.5336
1.250000, 49.103, 18.7818
1.265000, 49.033, 19.1936
1.280000, 48.968, 19.6038
1.315000, 48.833, 20.5581
1.320000, 48.815, 20.6945
1.340000, 48.748, 21.2411
1.360000, 48.686, 21.7960
1.380000, 48.627, 22.1898
1.400000, 48.572, 22.5263
1.430000, 48.494, 23.0464
1.450000, 48.443, 23.4043
1.475000, 48.382, 23.8642
1.500000, 48.327, 24.3338
1.525000, 48.281, 24.8106
1.550000, 48.244, 25.2946
1.575000, 48.215, 25.6939
1.600000, 48.194, 25.9351
1.625000, 48.180, 26.1856
1.650000, 48.174, 26.4458
1.675000, 48.174, 26.7167
1.700000, 48.180, 26.9993
1.725000, 48.192, 27.2949
1.750000, 48.209, 27.6052
1.775000, 48.231, 27.8693
1.800000, 48.257, 28.0289
1.825000, 48.287, 28.2109
1.850000, 48.323, 28.4145
1.875000, 48.364, 28.6417
1.900000, 48.412, 28.8913
1.925000, 48.466, 29.1610
1.950000, 48.526, 29.4503
1.975000, 48.592, 29.6968
2.000000, 48.663, 29.8409
2.030000, 48.754, 30.0371
2.060000, 48.852, 30.2497
2.090000, 48.955, 30.4772
2.120000, 49.064, 30.7184
2.140000, 49.140, 30.8863
2.180000, 49.296, 31.1780
2.200000, 49.377, 31.2772
2.240000, 49.548, 31.5173
2.270000, 49.684, 31.7373
2.300000, 49.826, 31.9859
2.330000, 49.975, 32.2570
2.360000, 50.129, 32.5434
2.400000, 50.341, 32.8015
2.430000, 50.505, 32.9820
2.470000, 50.729, 33.2242
2.500000, 50.900, 33.4030
2.540000, 51.132, 33.6346
2.580000, 51.367, 33.8220
2.620000, 51.609, 33.9453
2.650000, 51.796, 34.0632
2.690000, 52.052, 34.2431
2.720000, 52.247, 34.3883
2.760000, 52.510, 34.5907
2.800000, 52.777, 34.6871
2.850000, 53.112, 34.7742
2.900000, 53.446, 34.8317
2.950000, 53.779, 34.8663
3.000000, 54.114, 34.8318
3.040000, 54.384, 34.7896
3.070000, 54.588, 34.7638
3.110000, 54.860, 34.7323
3.150000, 55.132, 34.6986
3.200000, 55.470, 34.5804
3.250000, 55.805, 34.4116
3.300000, 56.135, 34.2221
3.350000, 56.463, 34.0303
3.400000, 56.788, 33.7810
3.450000, 57.112, 33.5122
3.500000, 57.432, 33.2478
3.550000, 57.749, 32.9850
3.600000, 58.061, 32.6663
3.650000, 58.369, 32.3191
3.700000, 58.672, 31.9692
3.750000, 58.971, 31.6237
3.820000, 59.382, 31.0814
3.870000, 59.671, 30.6865
3.950000, 60.124, 30.0657
4.000000, 60.402, 29.6443
4.060000, 60.730, 29.1238
4.120000, 61.051, 28.6134
4.180000, 61.367, 28.1021
4.250000, 61.728, 27.4617
4.310000, 62.031, 26.9256
4.370000, 62.329, 26.3928
4.440000, 62.671, 25.7337
4.500000, 62.958, 25.1790
4.550000, 63.192, 24.7262
4.620000, 63.515, 24.0626
4.680000, 63.787, 23.4945
4.750000, 64.098, 22.8437
4.820000, 64.403, 22.1674
4.870000, 64.617, 21.6848
4.940000, 64.911, 21.0222
5.000000, 65.158, 20.4439
5.080000, 65.481, 19.6691
5.150000, 65.757, 19.0036
5.220000, 66.027, 18.3188
5.300000, 66.328, 17.5396
5.380000, 66.621, 16.7751
5.450000, 66.871, 16.0962
5.520000, 67.116, 15.4350
5.600000, 67.388, 14.6786
5.700000, 67.718, 13.7334
5.800000, 68.037, 12.8208
5.900000, 68.345, 11.9314
6.000000, 68.643, 11.0687
6.080000, 68.874, 10.3880
6.150000, 69.072, 9.8236
6.220000, 69.266, 9.2715
6.300000, 69.483, 8.6707
6.400000, 69.748, 7.9550
6.500000, 70.008, 7.2715
6.600000, 70.264, 6.6391
6.700000, 70.518, 6.0463
6.800000, 70.768, 5.4963
6.900000, 71.018, 4.9705
7.000000, 71.269, 4.4786
7.100000, 71.520, 4.0126
7.200000, 71.773, 3.5692
7.300000, 72.026, 3.1239
7.400000, 72.283, 2.6835
7.500000, 72.541, 2.2415
7.620000, 72.851, 1.7015
7.750000, 73.187, 1.0830
7.880000, 73.523, 0.4274
8.000000, 73.829, -0.2033
8.120000, 74.130, -0.8736
8.250000, 74.451, -1.6360
8.380000, 74.763, -2.4207
8.500000, 75.042, -3.1667
8.620000, 75.312, -3.9261
8.750000, 75.595, -4.7475
8.850000, 75.805, -5.3738
9.000000, 76.109, -6.2959
9.120000, 76.344, -7.0106
9.250000, 76.590, -7.7510
9.380000, 76.829, -8.4551
9.500000, 77.046, -9.0749
9.620000, 77.259, -9.6575
9.750000, 77.486, -10.2543
9.880000, 77.703, -10.8214
10.000000, 77.893, -11.3144
10.150000, 78.120, -11.9281
10.300000, 78.339, -12.5131
10.440000, 78.539, -13.0373
10.600000, 78.766, -13.6199
10.750000, 78.981, -14.1571
10.900000, 79.197, -14.6879
11.060000, 79.426, -15.2706
11.200000, 79.624, -15.8067
11.380000, 79.875, -16.4966
11.500000, 80.040, -16.9574
11.720000, 80.339, -17.8065
11.800000, 80.447, -18.1174
12.060000, 80.795, -19.1509
12.200000, 80.980, -19.7401
12.410000, 81.252, -20.6299
12.500000, 81.365, -21.0121
12.650000, 81.548, -21.6484
12.800000, 81.725, -22.2776
13.150000, 82.116, -23.7184
13.200000, 82.170, -23.9197
13.400000, 82.382, -24.6952
13.600000, 82.591, -25.4184
13.800000, 82.799, -26.0899
14.000000, 83.009, -26.7248
14.300000, 83.331, -27.6804
14.500000, 83.550, -28.3282
14.750000, 83.826, -29.1829
15.000000, 84.102, -30.1070
15.250000, 84.373, -31.1270
15.500000, 84.632, -32.1891
15.750000, 84.874, -33.2559
16.000000, 85.101, -34.2884
16.250000, 85.318, -35.2834
16.500000, 85.530, -36.2107
16.750000, 85.744, -37.0812
17.000000, 85.962, -37.9235
17.250000, 86.184, -38.7785
17.500000, 86.406, -39.6475
17.750000, 86.623, -40.5271
18.000000, 86.833, -41.4021
18.250000, 87.035, -42.2612
18.500000, 87.232, -43.0684
18.750000, 87.430, -43.8139
19.000000, 87.633, -44.5061
19.250000, 87.845, -45.1870
19.500000, 88.067, -45.8777
19.750000, 88.295, -46.6105
20.000000, 88.524, -47.4071
20.299999, 88.793, -48.4647
20.600000, 89.048, -49.5907
20.900000, 89.285, -50.7387
21.200001, 89.504, -51.8697
21.400000, 89.642, -52.5950
21.799999, 89.910, -53.9540
22.000000, 90.042, -54.5930
22.400000, 90.310, -55.8352
22.700001, 90.515, -56.7574
23.000000, 90.722, -57.7014
23.299999, 90.928, -58.6939
23.600000, 91.131, -59.7389
24.000000, 91.391, -61.2111
24.299999, 91.572, -62.3642
24.700001, 91.793, -63.9104
25.000000, 91.943, -65.0411
25.400000, 92.130, -66.4846
25.799999, 92.311, -67.8419
26.200001, 92.492, -69.1545
26.500000, 92.627, -70.1387
26.900000, 92.802, -71.4637
27.200001, 92.927, -72.4624
27.600000, 93.082, -73.7624
28.000000, 93.227, -74.9825
28.500000, 93.408, -76.3842
29.000000, 93.602, -77.6968
29.500000, 93.808, -79.0194
30.000000, 94.018, -80.3970
30.400000, 94.181, -81.5368
30.700001, 94.301, -82.3989
31.100000, 94.458, -83.5511
31.500000, 94.614, -84.7144
32.000000, 94.810, -86.2035
32.500000, 95.000, -87.7630
33.000000, 95.176, -89.3794
33.500000, 95.336, -91.0136
34.000000, 95.482, -92.6221
34.500000, 95.622, -94.2045
35.000000, 95.756, -95.7798
35.500000, 95.878, -97.3631
36.000000, 95.987, -98.9335
36.500000, 96.082, -100.4645
37.000000, 96.168, -101.9430
37.500000, 96.249, -103.3846
38.200001, 96.348, -105.3607
38.700001, 96.407, -106.7334
39.500000, 96.486, -108.8236
40.000000, 96.528, -110.0653
40.599998, 96.574, -111.5094
41.200001, 96.611, -112.8979
41.799999, 96.642, -114.2192
42.500000, 96.672, -115.6753
43.099998, 96.694, -116.8513
43.700001, 96.712, -117.9457
44.400002, 96.731, -119.0987
45.000000, 96.751, -119.9930
45.500000, 96.772, -120.6831
46.200001, 96.809, -121.5661
46.799999, 96.852, -122.2690
47.500000, 96.916, -123.0810
48.200001, 96.988, -123.9051
48.700001, 97.043, -124.5034
49.400002, 97.122, -125.3624
50.000000, 97.188, -126.0983
50.799999, 97.280, -127.0239
51.500000, 97.376, -127.8335
52.200001, 97.480, -128.7355
53.000000, 97.595, -129.8618
53.799999, 97.706, -131.0632
54.500000, 97.793, -132.1722
55.200001, 97.874, -133.2743
56.000000, 97.971, -134.5668
57.000000, 98.073, -136.3485
58.000000, 98.144, -138.0065
59.000000, 98.231, -139.6514
60.000000, 98.283, -141.3924
60.799999, 98.314, -142.5820
61.500000, 98.361, -143.6333
62.200001, 98.394, -144.8169
63.000000, 98.396, -146.0928
64.000000, 98.406, -147.3441
65.000000, 98.458, -148.6986
66.000000, 98.477, -150.2971
67.000000, 98.451, -151.6011
68.000000, 98.471, -152.5583
69.000000, 98.535, -153.8043
70.000000, 98.556, -155.3118
71.000000, 98.523, -156.6789
72.000000, 98.472, -157.6050
73.000000, 98.489, -158.2409
74.000000, 98.563, -159.2398
75.000000, 98.627, -160.5877
76.199997, 98.672, -162.6077
77.500000, 98.585, -164.7213
78.800003, 98.477, -165.9865
80.000000, 98.377, -166.9259
81.199997, 98.290, -167.2529
82.500000, 98.316, -167.6581
83.800003, 98.339, -168.5600
85.000000, 98.381, -168.9893
86.199997, 98.520, -169.5587
87.500000, 98.604, -170.8269
88.500000, 98.539, -171.4941
90.000000, 98.376, -171.3382
91.199997, 98.257, -171.2752
92.500000, 98.031, -171.9957
93.800003, 97.652, -172.7073
95.000000, 97.300, -172.4592
96.199997, 97.138, -171.3825
97.500000, 97.251, -170.2291
98.800003, 97.557, -169.9641
100.000000, 97.861, -170.7666
101.500000, 98.119, -173.0076
103.000000, 98.187, -176.1055
104.400002, 98.115, -179.3129
106.000000, 97.919, 176.9576
107.500000, 97.642, 173.5824
109.000000, 97.305, 170.1188
110.599998, 96.946, 165.9008
112.000000, 96.738, 161.7675
113.800003, 96.747, 156.7704
115.000000, 96.904, 154.4169
117.199997, 97.260, 152.8536
118.000000, 97.345, 152.9280
120.599998, 97.346, 153.2788
122.000000, 97.214, 152.5515
124.099998, 97.031, 150.1949
125.000000, 96.997, 148.9857
126.500000, 96.987, 147.1372
128.000000, 96.983, 145.6920
131.500000, 96.775, 142.7249
132.000000, 96.727, 142.2271
134.000000, 96.541, 140.0657
136.000000, 96.378, 138.0142
138.000000, 96.208, 136.3272
140.000000, 95.997, 134.8247
143.000000, 95.657, 132.5127
145.000000, 95.446, 131.0103
147.500000, 95.172, 129.3209
150.000000, 94.876, 127.7448
152.500000, 94.576, 126.1118
155.000000, 94.266, 124.6032
157.500000, 93.933, 123.2493
160.000000, 93.585, 121.9929
162.500000, 93.236, 120.8512
165.000000, 92.883, 119.8391
167.500000, 92.515, 118.9416
170.000000, 92.136, 118.1581
172.500000, 91.758, 117.5246
175.000000, 91.381, 117.0282
177.500000, 90.995, 116.7091
180.000000, 90.608, 116.5856
182.500000, 90.234, 116.5620
185.000000, 89.875, 116.6413
187.500000, 89.526, 116.8392
190.000000, 89.180, 117.1250
192.500000, 88.836, 117.5211
195.000000, 88.490, 117.9950
197.500000, 88.142, 118.5961
200.000000, 87.814, 119.2556
203.000000, 87.435, 120.0860
206.000000, 87.066, 121.0345
209.000000, 86.717, 122.0774
212.000000, 86.404, 123.1513
214.000000, 86.197, 123.9500
218.000000, 85.774, 125.5582
220.000000, 85.567, 126.3121
224.000000, 85.194, 127.8766
227.000000, 84.916, 129.1973
230.000000, 84.618, 130.6234
233.000000, 84.320, 132.1008
236.000000, 84.035, 133.6995
240.000000, 83.672, 136.0789
243.000000, 83.419, 138.0504
247.000000, 83.132, 140.8221
250.000000, 82.957, 142.8261
254.000000, 82.738, 145.2625
258.000000, 82.499, 147.6151
262.000000, 82.247, 150.2301
265.000000, 82.064, 152.4397
269.000000, 81.849, 155.6810
272.000000, 81.715, 158.2966
276.000000, 81.584, 161.8913
280.000000, 81.509, 165.5568
285.000000, 81.504, 170.2077
290.000000, 81.585, 174.8187
295.000000, 81.739, 179.2318
300.000000, 81.968, -176.8152
304.000000, 82.188, -173.8091
307.000000, 82.374, -171.7127
311.000000, 82.653, -169.1415
315.000000, 82.956, -166.8133
320.000000, 83.344, -164.2365
325.000000, 83.725, -162.0183
330.000000, 84.103, -160.1847
335.000000, 84.471, -158.6257
340.000000, 84.835, -157.2159
345.000000, 85.198, -155.9470
350.000000, 85.565, -154.8242
355.000000, 85.929, -153.9186
360.000000, 86.288, -153.2821
365.000000, 86.637, -152.8471
370.000000, 86.966, -152.5270
375.000000, 87.272, -152.3305
382.000000, 87.665, -152.1765
387.000000, 87.929, -152.1478
395.000000, 88.341, -152.1465
400.000000, 88.599, -152.1890
406.000000, 88.909, -152.3737
412.000000, 89.205, -152.7231
418.000000, 89.481, -153.2543
425.000000, 89.770, -154.0729
431.000000, 89.987, -154.8790
437.000000, 90.168, -155.7388
444.000000, 90.327, -156.7377
450.000000, 90.417, -157.4714
455.000000, 90.466, -157.8774
462.000000, 90.523, -158.0182
468.000000, 90.601, -157.7744
475.000000, 90.760, -157.3074
482.000000, 90.975, -157.0314
487.000000, 91.144, -157.0393
494.000000, 91.371, -157.2548
500.000000, 91.548, -157.5187
508.000000, 91.774, -157.8640
515.000000, 91.976, -158.1547
522.000000, 92.184, -158.4928
530.000000, 92.423, -158.9838
538.000000, 92.655, -159.5900
545.000000, 92.850, -160.1772
552.000000, 93.044, -160.8106
560.000000, 93.262, -161.6024
570.000000, 93.525, -162.7437
580.000000, 93.765, -164.0136
590.000000, 93.977, -165.3276
600.000000, 94.165, -166.6332
608.000000, 94.305, -167.6503
615.000000, 94.424, -168.5386
622.000000, 94.540, -169.4506
630.000000, 94.661, -170.5191
640.000000, 94.801, -171.8676
650.000000, 94.933, -173.2325
660.000000, 95.050, -174.6262
670.000000, 95.152, -176.0213
680.000000, 95.239, -177.3882
690.000000, 95.312, -178.7139
700.000000, 95.376, -179.9716
710.000000, 95.438, 178.8512
720.000000, 95.500, 177.7151
730.000000, 95.565, 176.5772
740.000000, 95.630, 175.4112
750.000000, 95.687, 174.2249
762.000000, 95.746, 172.8095
775.000000, 95.800, 171.2811
788.000000, 95.841, 169.7424
800.000000, 95.868, 168.3353
812.000000, 95.886, 166.9513
825.000000, 95.896, 165.4779
838.000000, 95.899, 164.0488
850.000000, 95.894, 162.7375
862.000000, 95.884, 161.4520
875.000000, 95.866, 160.0819
885.000000, 95.845, 159.0235
900.000000, 95.799, 157.4771
912.000000, 95.754, 156.2978
925.000000, 95.699, 155.0539
938.000000, 95.637, 153.8626
950.000000, 95.574, 152.8047
962.000000, 95.504, 151.7925
975.000000, 95.420, 150.7469
988.000000, 95.329, 149.7718
1000.000000, 95.240, 148.9319
1015.000000, 95.125, 147.9724
1030.000000, 95.008, 147.1169
1044.000000, 94.897, 146.4214
1060.000000, 94.776, 145.7731
1075.000000, 94.675, 145.2976
1090.000000, 94.599, 144.8958
1106.000000, 94.548, 144.4653
1120.000000, 94.521, 144.0398
1138.000000, 94.495, 143.3995
1150.000000, 94.477, 142.9160
1172.000000, 94.430, 141.9662
1180.000000, 94.408, 141.6241
1206.000000, 94.332, 140.6037
1220.000000, 94.293, 140.0968
1241.000000, 94.239, 139.3717
1250.000000, 94.217, 139.0739
1265.000000, 94.181, 138.5972
1280.000000, 94.146, 138.1365
1315.000000, 94.061, 137.1596
1320.000000, 94.049, 137.0396
1340.000000, 94.001, 136.6307
1360.000000, 93.961, 136.2880
1380.000000, 93.945, 135.7769
1400.000000, 93.933, 135.0566
1430.000000, 93.888, 134.0217
1450.000000, 93.858, 133.3881
1475.000000, 93.826, 132.5657
1500.000000, 93.789, 131.6711
1525.000000, 93.733, 130.7276
1550.000000, 93.655, 129.8022
1575.000000, 93.561, 128.9413
1600.000000, 93.457, 128.1870
1625.000000, 93.349, 127.5212
1650.000000, 93.242, 126.9395
1675.000000, 93.138, 126.4201
1700.000000, 93.036, 125.9421
1725.000000, 92.933, 125.4761
1750.000000, 92.825, 125.0342
1775.000000, 92.711, 124.6565
1800.000000, 92.592, 124.3760
1825.000000, 92.473, 124.2095
1850.000000, 92.360, 124.1712
1875.000000, 92.261, 124.2373
1900.000000, 92.181, 124.3920
1925.000000, 92.122, 124.5569
1950.000000, 92.081, 124.6737
1975.000000, 92.049, 124.6956
2000.000000, 92.013, 124.6384
2030.000000, 91.956, 124.6509
2060.000000, 91.922, 124.9682
2090.000000, 91.974, 125.2585
2120.000000, 92.075, 124.8196
2140.000000, 92.106, 124.0744
2180.000000, 92.000, 122.5058
2200.000000, 91.891, 122.0532
2240.000000, 91.668, 121.9542
2270.000000, 91.551, 122.3271
2300.000000, 91.495, 122.7896
2330.000000, 91.486, 122.9844
2360.000000, 91.463, 122.8956
2400.000000, 91.397, 122.8687
2430.000000, 91.350, 122.9846
2470.000000, 91.306, 123.1826
2500.000000, 91.283, 123.2924
2540.000000, 91.250, 123.3143
2580.000000, 91.187, 123.2883
2620.000000, 91.085, 123.3883
2650.000000, 90.982, 123.6583
2690.000000, 90.804, 124.4896
2720.000000, 90.647, 125.7338
2760.000000, 90.470, 128.8799
2800.000000, 90.595, 134.5540
2850.000000, 91.910, 142.5157
2900.000000, 94.043, 140.9437
2950.000000, 95.192, 129.8665
3000.000000, 95.101, 119.0768
3040.000000, 94.647, 113.3036
3070.000000, 94.271, 110.3279
3110.000000, 93.797, 107.4896
3150.000000, 93.366, 105.4048
3200.000000, 92.867, 103.4195
3250.000000, 92.389, 101.9007
3300.000000, 91.913, 100.7308
3350.000000, 91.427, 99.9175
3400.000000, 90.925, 99.4983
3450.000000, 90.405, 99.4991
3500.000000, 89.860, 99.9836
3550.000000, 89.277, 101.1383
3600.000000, 88.662, 103.3073
3650.000000, 88.064, 106.9502
3700.000000, 87.595, 112.3176
3750.000000, 87.393, 119.1005
3820.000000, 87.745, 129.0866
3870.000000, 88.359, 134.4791
3950.000000, 89.369, 140.1714
4000.000000, 90.173, 144.0302
4060.000000, 91.337, 145.9453
4120.000000, 92.225, 145.9352
4180.000000, 93.239, 148.8840
4250.000000, 95.565, 150.7589
4310.000000, 97.505, 143.5656
4370.000000, 98.633, 132.2191
4440.000000, 99.100, 119.0567
4500.000000, 99.107, 109.3185
4550.000000, 98.991, 102.1444
4620.000000, 98.710, 92.8272
4680.000000, 98.328, 85.2445
4750.000000, 97.685, 77.0636
4820.000000, 96.836, 69.9940
4870.000000, 96.129, 65.8235
4940.000000, 95.041, 61.3679
5000.000000, 94.046, 59.0519
5080.000000, 92.759, 58.5933
5150.000000, 91.858, 60.3542
5220.000000, 91.298, 63.1777
5300.000000, 91.159, 66.3416
5380.000000, 91.525, 67.0176
5450.000000, 91.972, 64.0161
5520.000000, 92.238, 57.9607
5600.000000, 92.094, 48.6011
5700.000000, 91.114, 35.9570
5800.000000, 89.463, 23.8917
5900.000000, 87.160, 11.2743
6000.000000, 83.826, -2.5584
6080.000000, 80.061, -15.6267
6150.000000, 76.048, -36.8452
6220.000000, 74.116, -164.6462
6300.000000, 76.941, 166.4783
6400.000000, 81.049, 157.9027
6500.000000, 83.940, 148.9339
6600.000000, 85.659, 138.4205
6700.000000, 86.376, 128.4398
6800.000000, 86.385, 121.1104
6900.000000, 86.066, 117.2916
7000.000000, 85.713, 116.7201
7100.000000, 85.520, 118.5814
7200.000000, 85.594, 121.6665
7300.000000, 85.915, 124.5844
7400.000000, 86.337, 126.6362
7500.000000, 86.740, 128.3405
7620.000000, 87.334, 131.3904
7750.000000, 88.482, 134.7770
7880.000000, 89.895, 134.1948
8000.000000, 90.928, 129.6696
8120.000000, 91.464, 123.7331
8250.000000, 91.635, 118.5502
8380.000000, 91.773, 115.3359
8500.000000, 92.059, 112.4834
8620.000000, 92.339, 108.4262
8750.000000, 92.442, 103.3811
8850.000000, 92.442, 99.6105
9000.000000, 92.323, 92.9969
9120.000000, 91.882, 87.2716
9250.000000, 91.026, 82.9694
9380.000000, 90.080, 81.7344
9500.000000, 89.346, 82.3663
9620.000000, 88.725, 83.8104
9750.000000, 88.119, 87.0229
9880.000000, 87.856, 93.5787
10000.000000, 88.425, 101.0153
10150.000000, 90.131, 104.8229
10300.000000, 91.976, 99.5034
10440.000000, 93.074, 87.9169
10600.000000, 93.082, 71.4646
10750.000000, 91.939, 58.0627
10900.000000, 90.097, 49.6628
11060.000000, 87.885, 47.6149
11200.000000, 86.292, 51.5851
11380.000000, 85.415, 58.1012
11500.000000, 85.200, 58.7131
11720.000000, 83.898, 57.5768
11800.000000, 83.197, 60.2743
12060.000000, 82.744, 78.6379
12200.000000, 83.768, 84.0153
12410.000000, 85.777, 82.2551
12500.000000, 86.617, 77.7187
12650.000000, 87.509, 64.8258
12800.000000, 87.179, 48.0507
13150.000000, 82.011, 28.5861
13200.000000, 81.300, 27.8711
13400.000000, 78.516, 21.3882
13600.000000, 74.610, 41.0665
13800.000000, 74.705, 93.4091
14000.000000, 77.555, 91.7684
14300.000000, 79.361, 65.5682
14500.000000, 78.429, 42.3811
14750.000000, 75.454, 9.7886
15000.000000, 72.459, -53.3116
15250.000000, 70.732, -174.0697
15500.000000, 68.683, 165.6647
15750.000000, 69.894, -136.5781
16000.000000, 71.602, -155.5253
16250.000000, 71.453, -153.9587
16500.000000, 74.309, -134.8584
16750.000000, 77.784, -138.4705
17000.000000, 79.589, -151.0642
17250.000000, 80.294, -161.1626
17500.000000, 80.928, -168.9918
17750.000000, 81.135, -178.1135
18000.000000, 80.753, 176.0166
18250.000000, 80.892, 171.5299
18500.000000, 80.863, 160.8817
18750.000000, 79.532, 147.7396
19000.000000, 76.577, 140.5907
19250.000000, 72.685, 153.4336
19500.000000, 70.221, -179.2363
19750.000000, 69.679, -158.8691
20000.000000, 69.876, -141.4583
20300.000000, 71.300, -118.6260
20600.000000, 74.216, -105.2856
20900.000000, 75.966, -107.9942
21200.000000, 76.454, -109.1998
21400.000000, 76.914, -107.6687
21800.000000, 78.036, -107.9447
22000.000000, 78.209, -109.5663
22400.000000, 77.477, -109.9112
22700.000000, 76.547, -105.3394
23000.000000, 75.496, -97.6234
23300.000000, 74.049, -87.2675
23600.000000, 70.757, -91.9304
24000.000000, 64.171, -107.3109
