* Measurement data measured by REW V5.31.3
* Source: Analog 1/2 (E2x2), LINE_IN (Master Volume), L, volume: 1.000. Timing signal peak level -29.2 dBFS, measurement signal peak level -29.2 dBFS
* Format: 2M Log Swept Sine, 1 sweep at -21.6 dBFS using an acoustic timing reference
* Dated: Mar 10, 2025 9:09:15 AM
* REW Settings:
*  C-weighting compensation: Off
*  Target level: 85.0 dB
* Note: ; E2x2 Delay -0.0552 ms (-19 mm, -0.74 in) using estimated IR delay relative to Acoustic reference played from LINE_OUT R with no timing offset
* Measurement: R5
* Smoothing: 1/24 octave
* Frequency Step: 1/48 octave
* Start Frequency: 1.000 Hz
*
* Freq(Hz), SPL(dB), Phase(degrees)
1.000000, 40.112, 24.5573
1.015000, 40.062, 23.1773
1.030000, 40.019, 21.9625
1.044000, 39.986, 20.9608
1.060000, 39.956, 19.9528
1.075000, 39.936, 19.1221
1.090000, 39.924, 18.3832
1.106000, 39.922, 17.6645
1.120000, 39.933, 17.0607
1.138000, 39.966, 16.3029
1.150000, 40.000, 15.8117
1.172000, 40.084, 14.8390
1.180000, 40.121, 14.3854
1.206000, 40.262, 12.9901
1.220000, 40.350, 12.2890
1.241000, 40.494, 11.3117
1.250000, 40.559, 10.9221
1.265000, 40.672, 10.3136
1.280000, 40.790, 9.7583
1.315000, 41.075, 8.6778
1.320000, 41.116, 8.5485
1.340000, 41.280, 8.0953
1.360000, 41.441, 7.7496
1.380000, 41.596, 7.3402
1.400000, 41.743, 6.9683
1.430000, 41.940, 6.5968
1.450000, 42.054, 6.4670
1.475000, 42.175, 6.4072
1.500000, 42.283, 6.3912
1.525000, 42.382, 6.3901
1.550000, 42.476, 6.4078
1.575000, 42.563, 6.3598
1.600000, 42.645, 6.1799
1.625000, 42.722, 6.0423
1.650000, 42.795, 5.9537
1.675000, 42.865, 5.9210
1.700000, 42.931, 5.9504
1.725000, 42.995, 6.0483
1.750000, 43.058, 6.2209
1.775000, 43.119, 6.4111
1.800000, 43.179, 6.5636
1.825000, 43.239, 6.8027
1.850000, 43.297, 7.1035
1.875000, 43.350, 7.4357
1.900000, 43.397, 7.7900
1.925000, 43.440, 8.1675
1.950000, 43.480, 8.5732
1.975000, 43.518, 8.9503
2.000000, 43.554, 9.2449
2.030000, 43.598, 9.6558
2.060000, 43.643, 10.1297
2.090000, 43.691, 10.6743
2.120000, 43.744, 11.2971
2.140000, 43.783, 11.7594
2.180000, 43.872, 12.7432
2.200000, 43.921, 13.2391
2.240000, 44.025, 14.3473
2.270000, 44.105, 15.2660
2.300000, 44.188, 16.2472
2.330000, 44.274, 17.2808
2.360000, 44.364, 18.3559
2.400000, 44.494, 19.6994
2.430000, 44.599, 20.7136
2.470000, 44.753, 22.0853
2.500000, 44.879, 23.1185
2.540000, 45.065, 24.4918
2.580000, 45.273, 25.8288
2.620000, 45.503, 27.1309
2.650000, 45.689, 28.1477
2.690000, 45.953, 29.5240
2.720000, 46.161, 30.5503
2.760000, 46.449, 31.8860
2.800000, 46.747, 33.0494
2.850000, 47.127, 34.3518
2.900000, 47.510, 35.4726
2.950000, 47.898, 36.4300
3.000000, 48.298, 37.2365
3.040000, 48.629, 37.8209
3.070000, 48.882, 38.2341
3.110000, 49.221, 38.7413
3.150000, 49.562, 39.1884
3.200000, 49.984, 39.5836
3.250000, 50.397, 39.8266
3.300000, 50.797, 39.9479
3.350000, 51.187, 39.9825
3.400000, 51.572, 39.8974
3.450000, 51.951, 39.7448
3.500000, 52.322, 39.5587
3.550000, 52.685, 39.3434
3.600000, 53.038, 39.0466
3.650000, 53.379, 38.6959
3.700000, 53.707, 38.3084
3.750000, 54.025, 37.8856
3.820000, 54.452, 37.1927
3.870000, 54.746, 36.6820
3.950000, 55.198, 35.8996
4.000000, 55.470, 35.4053
4.060000, 55.786, 34.8187
4.120000, 56.089, 34.2390
4.180000, 56.378, 33.6565
4.250000, 56.703, 32.9554
4.310000, 56.974, 32.4080
4.370000, 57.240, 31.9172
4.440000, 57.545, 31.3726
4.500000, 57.798, 30.9529
4.550000, 58.003, 30.6324
4.620000, 58.287, 30.1846
4.680000, 58.530, 29.8330
4.750000, 58.816, 29.4786
4.820000, 59.104, 29.1568
4.870000, 59.311, 28.9610
4.940000, 59.600, 28.7264
5.000000, 59.850, 28.5202
5.080000, 60.188, 28.2249
5.150000, 60.491, 27.9638
5.220000, 60.799, 27.6959
5.300000, 61.158, 27.3976
5.380000, 61.521, 27.0689
5.450000, 61.839, 26.6992
5.520000, 62.158, 26.2754
5.600000, 62.526, 25.7401
5.700000, 62.987, 24.9979
5.800000, 63.441, 24.1541
5.900000, 63.882, 23.1651
6.000000, 64.312, 22.0718
6.080000, 64.647, 21.1339
6.150000, 64.930, 20.2916
6.220000, 65.203, 19.4073
6.300000, 65.502, 18.3548
6.400000, 65.857, 16.9860
6.500000, 66.191, 15.5994
6.600000, 66.501, 14.2430
6.700000, 66.788, 12.8838
6.800000, 67.053, 11.5392
6.900000, 67.299, 10.2560
7.000000, 67.527, 9.0745
7.100000, 67.736, 7.9598
7.200000, 67.930, 6.9290
7.300000, 68.115, 6.0102
7.400000, 68.293, 5.2252
7.500000, 68.464, 4.5466
7.620000, 68.667, 3.8712
7.750000, 68.895, 3.3164
7.880000, 69.132, 2.9260
8.000000, 69.362, 2.6654
8.120000, 69.609, 2.4585
8.250000, 69.895, 2.2921
8.380000, 70.196, 2.1233
8.500000, 70.487, 1.9179
8.620000, 70.790, 1.6736
8.750000, 71.124, 1.3379
8.850000, 71.380, 1.0122
9.000000, 71.765, 0.4369
9.120000, 72.068, -0.0924
9.250000, 72.389, -0.7295
9.380000, 72.700, -1.4171
9.500000, 72.979, -2.0818
9.620000, 73.249, -2.7605
9.750000, 73.531, -3.5101
9.880000, 73.798, -4.2632
10.000000, 74.028, -4.9489
10.150000, 74.298, -5.8288
10.300000, 74.555, -6.6989
10.440000, 74.786, -7.5032
10.600000, 75.043, -8.4243
10.750000, 75.280, -9.2978
10.900000, 75.513, -10.1803
11.060000, 75.753, -11.1526
11.200000, 75.953, -12.0385
11.380000, 76.198, -13.1688
11.500000, 76.351, -13.9119
11.720000, 76.617, -15.2254
11.800000, 76.709, -15.6797
12.060000, 77.000, -17.0747
12.200000, 77.153, -17.7801
12.410000, 77.382, -18.7530
12.500000, 77.481, -19.1429
12.650000, 77.648, -19.7625
12.800000, 77.818, -20.3611
13.150000, 78.227, -21.7756
13.200000, 78.286, -21.9886
13.400000, 78.527, -22.8637
13.600000, 78.765, -23.7771
13.800000, 78.999, -24.7254
14.000000, 79.224, -25.6927
14.300000, 79.544, -27.1796
14.500000, 79.749, -28.1480
14.750000, 80.001, -29.3242
15.000000, 80.252, -30.4724
15.250000, 80.507, -31.6429
15.500000, 80.763, -32.8312
15.750000, 81.014, -34.0453
16.000000, 81.256, -35.2805
16.250000, 81.487, -36.5380
16.500000, 81.709, -37.7726
16.750000, 81.925, -38.9682
17.000000, 82.142, -40.1312
17.250000, 82.361, -41.2988
17.500000, 82.583, -42.4866
17.750000, 82.802, -43.7214
18.000000, 83.014, -45.0149
18.250000, 83.212, -46.3696
18.500000, 83.390, -47.7400
18.750000, 83.550, -49.0831
19.000000, 83.695, -50.3623
19.250000, 83.829, -51.5704
19.500000, 83.959, -52.6982
19.750000, 84.089, -53.7691
20.000000, 84.218, -54.8183
20.299999, 84.367, -56.1008
20.600000, 84.499, -57.3939
20.900000, 84.604, -58.6453
21.200001, 84.680, -59.7676
21.400000, 84.718, -60.3909
21.799999, 84.790, -61.2552
22.000000, 84.838, -61.5058
22.400000, 84.989, -61.8074
22.700001, 85.154, -62.0374
23.000000, 85.351, -62.4315
23.299999, 85.558, -63.0633
23.600000, 85.754, -63.9010
24.000000, 85.976, -65.1663
24.299999, 86.113, -66.0808
24.700001, 86.283, -67.0892
25.000000, 86.423, -67.6833
25.400000, 86.653, -68.4187
25.799999, 86.931, -69.3294
26.200001, 87.225, -70.6166
26.500000, 87.430, -71.8340
26.900000, 87.656, -73.6468
27.200001, 87.784, -75.0078
27.600000, 87.913, -76.6231
28.000000, 88.029, -77.8986
28.500000, 88.211, -79.1247
29.000000, 88.459, -80.3051
29.500000, 88.741, -81.7758
30.000000, 89.009, -83.5477
30.400000, 89.198, -85.0630
30.700001, 89.330, -86.2003
31.100000, 89.505, -87.7211
31.500000, 89.683, -89.3136
32.000000, 89.903, -91.5182
32.500000, 90.091, -93.9984
33.000000, 90.228, -96.6426
33.500000, 90.316, -99.3192
34.000000, 90.369, -101.9845
34.500000, 90.394, -104.6913
35.000000, 90.375, -107.4621
35.500000, 90.297, -110.2250
36.000000, 90.158, -112.8443
36.500000, 89.969, -115.2321
37.000000, 89.742, -117.3695
37.500000, 89.473, -119.2470
38.200001, 89.023, -121.2670
38.700001, 88.668, -122.1248
39.500000, 88.102, -122.4743
40.000000, 87.763, -122.1413
40.599998, 87.375, -121.1321
41.200001, 87.049, -119.3956
41.799999, 86.836, -117.2116
42.500000, 86.716, -114.6655
43.099998, 86.673, -112.5385
43.700001, 86.687, -110.2915
44.400002, 86.817, -107.6925
45.000000, 87.007, -105.8333
45.500000, 87.185, -104.5773
46.200001, 87.445, -103.0214
46.799999, 87.697, -101.7535
47.500000, 88.043, -100.4686
48.200001, 88.431, -99.5612
48.700001, 88.720, -99.1741
49.400002, 89.124, -98.9706
50.000000, 89.460, -99.0535
50.799999, 89.887, -99.4147
51.500000, 90.248, -99.9113
52.200001, 90.598, -100.5871
53.000000, 90.978, -101.5559
53.799999, 91.339, -102.6762
54.500000, 91.645, -103.7873
55.200001, 91.939, -105.0430
56.000000, 92.256, -106.6467
57.000000, 92.616, -108.9038
58.000000, 92.911, -111.3667
59.000000, 93.132, -113.7617
60.000000, 93.310, -115.8429
60.799999, 93.454, -117.2449
61.500000, 93.600, -118.3801
62.200001, 93.762, -119.5666
63.000000, 93.952, -121.0579
64.000000, 94.177, -123.0826
65.000000, 94.381, -125.2425
66.000000, 94.557, -127.4943
67.000000, 94.709, -129.7754
68.000000, 94.841, -132.0887
69.000000, 94.949, -134.4609
70.000000, 95.020, -136.8023
71.000000, 95.070, -139.0013
72.000000, 95.114, -141.1042
73.000000, 95.150, -143.1754
74.000000, 95.177, -145.2408
75.000000, 95.189, -147.3264
76.199997, 95.177, -149.8519
77.500000, 95.119, -152.5544
78.800003, 95.016, -155.0559
80.000000, 94.892, -157.1197
81.199997, 94.752, -158.9045
82.500000, 94.597, -160.4858
83.800003, 94.472, -161.7470
85.000000, 94.395, -162.8442
86.199997, 94.347, -164.0099
87.500000, 94.306, -165.4379
88.500000, 94.272, -166.6442
90.000000, 94.197, -168.6123
91.199997, 94.109, -170.2670
92.500000, 93.975, -172.1093
93.800003, 93.791, -173.8709
95.000000, 93.583, -175.2780
96.199997, 93.355, -176.3974
97.500000, 93.101, -177.2215
98.800003, 92.867, -177.6399
100.000000, 92.682, -177.7939
101.500000, 92.488, -177.7747
103.000000, 92.343, -177.5766
104.400002, 92.263, -177.3179
106.000000, 92.243, -177.2191
107.500000, 92.262, -177.4515
109.000000, 92.305, -177.9985
110.599998, 92.354, -179.0357
112.000000, 92.368, 179.7549
113.800003, 92.341, 177.9526
115.000000, 92.285, 176.6171
117.199997, 92.098, 174.2575
118.000000, 92.013, 173.4699
120.599998, 91.694, 171.1988
122.000000, 91.512, 170.2048
124.099998, 91.234, 168.9271
125.000000, 91.117, 168.4732
126.500000, 90.932, 167.7446
128.000000, 90.746, 166.9689
131.500000, 90.263, 165.2702
132.000000, 90.189, 165.0643
134.000000, 89.885, 164.3362
136.000000, 89.566, 163.8217
138.000000, 89.237, 163.4772
140.000000, 88.903, 163.2842
143.000000, 88.408, 163.2090
145.000000, 88.094, 163.3754
147.500000, 87.709, 163.7989
150.000000, 87.300, 164.4860
152.500000, 86.906, 165.5213
155.000000, 86.566, 166.6214
157.500000, 86.253, 167.8512
160.000000, 85.946, 169.2884
162.500000, 85.642, 170.8967
165.000000, 85.374, 172.6233
167.500000, 85.144, 174.3517
170.000000, 84.928, 176.1196
172.500000, 84.716, 177.9453
175.000000, 84.514, 179.8969
177.500000, 84.331, -178.0257
180.000000, 84.169, -175.8057
182.500000, 84.036, -173.5069
185.000000, 83.932, -171.1956
187.500000, 83.857, -168.8607
190.000000, 83.808, -166.5163
192.500000, 83.781, -164.1471
195.000000, 83.789, -161.7802
197.500000, 83.839, -159.4508
200.000000, 83.931, -157.1958
203.000000, 84.081, -154.6493
206.000000, 84.250, -152.3610
209.000000, 84.427, -150.3464
212.000000, 84.607, -148.5508
214.000000, 84.735, -147.4104
218.000000, 85.006, -145.3961
220.000000, 85.143, -144.5027
224.000000, 85.424, -142.8994
227.000000, 85.632, -141.9451
230.000000, 85.833, -141.2249
233.000000, 86.023, -140.7192
236.000000, 86.189, -140.3032
240.000000, 86.362, -139.7748
243.000000, 86.458, -139.3237
247.000000, 86.556, -138.5700
250.000000, 86.616, -137.8467
254.000000, 86.702, -136.6459
258.000000, 86.808, -135.1675
262.000000, 86.951, -133.4266
265.000000, 87.106, -132.0112
269.000000, 87.395, -130.1949
272.000000, 87.664, -129.0872
276.000000, 88.058, -128.1528
280.000000, 88.460, -127.8739
285.000000, 88.912, -128.2647
290.000000, 89.271, -129.1061
295.000000, 89.541, -130.1329
300.000000, 89.730, -131.1967
304.000000, 89.830, -131.9268
307.000000, 89.880, -132.3827
311.000000, 89.922, -132.8451
315.000000, 89.948, -133.0863
320.000000, 89.970, -133.1267
325.000000, 89.975, -132.9036
330.000000, 89.978, -132.3042
335.000000, 89.999, -131.2881
340.000000, 90.066, -129.9058
345.000000, 90.204, -128.2852
350.000000, 90.431, -126.6354
355.000000, 90.743, -125.2493
360.000000, 91.110, -124.3503
365.000000, 91.494, -123.9691
370.000000, 91.869, -124.0713
375.000000, 92.219, -124.5403
382.000000, 92.653, -125.6677
387.000000, 92.912, -126.7113
395.000000, 93.236, -128.4655
400.000000, 93.399, -129.4779
406.000000, 93.574, -130.6597
412.000000, 93.720, -131.8634
418.000000, 93.830, -133.0151
425.000000, 93.923, -134.1786
431.000000, 93.987, -134.9827
437.000000, 94.045, -135.6367
444.000000, 94.113, -136.1783
450.000000, 94.186, -136.4430
455.000000, 94.267, -136.5629
462.000000, 94.421, -136.7402
468.000000, 94.582, -136.9895
475.000000, 94.797, -137.4496
482.000000, 95.034, -138.2023
487.000000, 95.206, -138.9239
494.000000, 95.445, -140.1672
500.000000, 95.646, -141.4951
508.000000, 95.887, -143.7442
515.000000, 96.048, -146.1772
522.000000, 96.131, -148.9933
530.000000, 96.085, -152.5124
538.000000, 95.852, -155.9289
545.000000, 95.489, -158.2883
552.000000, 95.023, -159.5082
560.000000, 94.482, -159.1382
570.000000, 94.031, -156.5599
580.000000, 93.958, -153.5544
590.000000, 94.129, -151.7104
600.000000, 94.358, -151.1816
608.000000, 94.514, -151.4223
615.000000, 94.614, -151.9184
622.000000, 94.676, -152.5827
630.000000, 94.694, -153.4529
640.000000, 94.629, -154.4440
650.000000, 94.481, -154.9565
660.000000, 94.306, -154.6301
670.000000, 94.205, -153.3840
680.000000, 94.257, -151.7837
690.000000, 94.455, -150.5297
700.000000, 94.744, -150.0310
710.000000, 95.050, -150.4402
720.000000, 95.308, -151.5834
730.000000, 95.492, -153.1711
740.000000, 95.593, -154.9874
750.000000, 95.610, -156.8477
762.000000, 95.529, -158.9116
775.000000, 95.328, -160.6720
788.000000, 95.054, -161.5035
800.000000, 94.828, -161.2979
812.000000, 94.710, -160.5317
825.000000, 94.718, -159.7902
838.000000, 94.808, -159.5663
850.000000, 94.902, -159.8945
862.000000, 94.974, -160.5874
875.000000, 95.015, -161.5830
885.000000, 95.017, -162.4381
900.000000, 94.975, -163.7126
912.000000, 94.915, -164.6588
925.000000, 94.839, -165.6612
938.000000, 94.748, -166.7216
950.000000, 94.643, -167.7657
962.000000, 94.505, -168.8199
975.000000, 94.310, -169.8622
988.000000, 94.079, -170.6744
1000.000000, 93.854, -171.1810
1015.000000, 93.581, -171.5507
1030.000000, 93.323, -171.8749
1044.000000, 93.062, -172.2782
1060.000000, 92.699, -172.6411
1075.000000, 92.290, -172.4879
1090.000000, 91.860, -171.4958
1106.000000, 91.475, -169.3110
1120.000000, 91.289, -166.8421
1138.000000, 91.258, -164.0307
1150.000000, 91.310, -162.7517
1172.000000, 91.417, -161.6044
1180.000000, 91.439, -161.4764
1206.000000, 91.402, -161.6215
1220.000000, 91.311, -161.8016
1241.000000, 91.089, -161.8830
1250.000000, 90.968, -161.7804
1265.000000, 90.747, -161.3475
1280.000000, 90.518, -160.5527
1315.000000, 90.092, -157.5950
1320.000000, 90.049, -157.1503
1340.000000, 89.894, -155.5655
1360.000000, 89.703, -154.2794
1380.000000, 89.453, -152.9819
1400.000000, 89.168, -151.3125
1430.000000, 88.728, -147.6582
1450.000000, 88.500, -144.3915
1475.000000, 88.355, -139.8677
1500.000000, 88.372, -135.3777
1525.000000, 88.506, -131.4345
1550.000000, 88.680, -128.1879
1575.000000, 88.842, -125.4258
1600.000000, 88.989, -123.0039
1625.000000, 89.075, -120.8679
1650.000000, 89.074, -118.4949
1675.000000, 89.049, -115.2686
1700.000000, 89.120, -111.2649
1725.000000, 89.316, -107.2026
1750.000000, 89.593, -103.3070
1775.000000, 89.944, -99.5121
1800.000000, 90.383, -95.8572
1825.000000, 90.923, -92.5531
1850.000000, 91.552, -89.9129
1875.000000, 92.217, -88.2224
1900.000000, 92.856, -87.3961
1925.000000, 93.438, -87.1705
1950.000000, 93.961, -87.3178
1975.000000, 94.428, -87.7291
2000.000000, 94.842, -88.3020
2030.000000, 95.279, -89.0872
2060.000000, 95.671, -89.8751
2090.000000, 96.037, -90.7030
2120.000000, 96.376, -91.6610
2140.000000, 96.583, -92.3940
2180.000000, 96.929, -93.9947
2200.000000, 97.064, -94.7962
2240.000000, 97.268, -96.1662
2270.000000, 97.392, -96.8951
2300.000000, 97.518, -97.4029
2330.000000, 97.657, -97.8172
2360.000000, 97.806, -98.2209
2400.000000, 98.013, -98.8726
2430.000000, 98.158, -99.4744
2470.000000, 98.323, -100.2224
2500.000000, 98.447, -100.6380
2540.000000, 98.651, -101.1567
2580.000000, 98.888, -102.0133
2620.000000, 99.102, -103.3266
2650.000000, 99.229, -104.4558
2690.000000, 99.362, -106.0057
2720.000000, 99.452, -107.1744
2760.000000, 99.579, -108.9334
2800.000000, 99.673, -111.3319
2850.000000, 99.578, -114.9027
2900.000000, 99.265, -117.7114
2950.000000, 98.868, -119.4095
3000.000000, 98.483, -120.2030
3040.000000, 98.209, -120.5116
3070.000000, 98.015, -120.6792
3110.000000, 97.754, -120.8102
3150.000000, 97.495, -120.7931
3200.000000, 97.179, -120.6886
3250.000000, 96.843, -120.5790
3300.000000, 96.461, -120.3008
3350.000000, 96.040, -119.6364
3400.000000, 95.603, -118.5702
3450.000000, 95.155, -117.1557
3500.000000, 94.683, -115.2727
3550.000000, 94.194, -112.7315
3600.000000, 93.704, -109.3844
3650.000000, 93.243, -104.9592
3700.000000, 92.896, -99.2326
3750.000000, 92.783, -92.4620
3820.000000, 93.144, -83.0326
3870.000000, 93.702, -77.7001
3950.000000, 94.764, -72.8903
4000.000000, 95.341, -71.9170
4060.000000, 95.815, -71.8355
4120.000000, 96.043, -71.7039
4180.000000, 96.155, -70.4680
4250.000000, 96.386, -67.8877
4310.000000, 96.708, -65.9168
4370.000000, 97.020, -64.6190
4440.000000, 97.304, -63.1782
4500.000000, 97.558, -61.6157
4550.000000, 97.818, -60.3294
4620.000000, 98.226, -58.9364
4680.000000, 98.582, -58.1192
4750.000000, 98.988, -57.5293
4820.000000, 99.360, -57.3140
4870.000000, 99.588, -57.2818
4940.000000, 99.861, -57.0655
5000.000000, 100.097, -56.5233
5080.000000, 100.498, -55.5613
5150.000000, 100.931, -54.9661
5220.000000, 101.415, -54.7523
5300.000000, 102.029, -55.0404
5380.000000, 102.705, -56.0659
5450.000000, 103.344, -57.7798
5520.000000, 104.007, -60.5283
5600.000000, 104.729, -65.3005
5700.000000, 105.394, -73.8510
5800.000000, 105.553, -84.5433
5900.000000, 105.029, -95.4924
6000.000000, 103.891, -104.2713
6080.000000, 102.726, -108.7932
6150.000000, 101.660, -110.8740
6220.000000, 100.641, -111.5166
6300.000000, 99.593, -111.1080
6400.000000, 98.433, -109.7020
6500.000000, 97.377, -107.6457
6600.000000, 96.395, -104.9857
6700.000000, 95.475, -101.8538
6800.000000, 94.593, -98.4197
6900.000000, 93.697, -94.5278
7000.000000, 92.755, -89.3906
7100.000000, 91.843, -81.9186
7200.000000, 91.193, -71.6929
7300.000000, 91.073, -59.7514
7400.000000, 91.590, -48.3296
7500.000000, 92.606, -39.6490
7620.000000, 94.088, -34.2015
7750.000000, 95.487, -33.7592
7880.000000, 96.227, -36.1904
8000.000000, 96.448, -37.6835
8120.000000, 96.664, -37.8004
8250.000000, 96.998, -38.9380
8380.000000, 97.070, -41.2910
8500.000000, 96.951, -42.3104
8620.000000, 97.006, -42.6494
8750.000000, 97.167, -45.0809
8850.000000, 97.120, -48.1513
9000.000000, 96.835, -53.3530
9120.000000, 96.423, -58.9367
9250.000000, 95.453, -65.9491
9380.000000, 93.840, -71.0803
9500.000000, 92.052, -72.5909
9620.000000, 90.306, -71.8165
9750.000000, 88.621, -71.1841
9880.000000, 86.901, -74.2493
10000.000000, 84.700, -82.0661
10150.000000, 80.825, -104.3016
10300.000000, 80.272, 125.1717
10440.000000, 83.864, 100.6047
10600.000000, 87.751, 94.4352
10750.000000, 90.888, 90.3516
10900.000000, 93.516, 83.3264
11060.000000, 95.486, 71.8514
11200.000000, 96.177, 60.0014
11380.000000, 95.645, 48.3410
11500.000000, 94.860, 45.6906
11720.000000, 94.055, 50.3231
11800.000000, 94.162, 52.9042
12060.000000, 95.401, 57.4049
12200.000000, 96.253, 56.7366
12410.000000, 97.444, 51.7810
12500.000000, 97.825, 48.2110
12650.000000, 98.148, 41.0341
12800.000000, 98.068, 33.5586
13150.000000, 96.909, 17.9791
13200.000000, 96.629, 15.9603
13400.000000, 95.143, 10.3298
13600.000000, 93.752, 10.0820
13800.000000, 93.167, 10.1503
14000.000000, 93.020, 6.9930
14300.000000, 92.944, -4.6130
14500.000000, 92.675, -17.0513
14750.000000, 91.857, -37.4364
15000.000000, 90.231, -61.1846
15250.000000, 88.079, -85.5631
15500.000000, 85.690, -108.1707
15750.000000, 83.378, -123.7941
16000.000000, 82.006, -130.4540
16250.000000, 82.099, -130.5770
16500.000000, 83.717, -130.2158
16750.000000, 85.851, -136.4740
17000.000000, 87.221, -150.0115
17250.000000, 87.101, -166.4777
17500.000000, 85.397, -179.8300
17750.000000, 82.464, 174.7042
18000.000000, 78.796, -176.7350
18250.000000, 76.316, -142.9676
18500.000000, 77.634, -110.5032
18750.000000, 79.994, -97.5396
19000.000000, 82.202, -91.0494
19250.000000, 84.464, -88.8140
19500.000000, 86.324, -93.2990
19750.000000, 87.076, -102.6938
20000.000000, 86.512, -111.7322
20300.000000, 84.724, -117.0567
20600.000000, 82.663, -115.5652
20900.000000, 80.890, -108.9006
21200.000000, 79.760, -100.3043
21400.000000, 79.265, -95.4927
21800.000000, 78.034, -88.2310
22000.000000, 76.997, -83.7013
22400.000000, 74.998, -64.9351
22700.000000, 75.017, -48.8558
23000.000000, 74.743, -40.0131
23300.000000, 72.732, -32.2681
23600.000000, 68.579, -32.5187
24000.000000, 62.156, -33.0456
